#Wave		#Intensity
1799.006836	125.891281
1798.043945	31.379820
1797.081055	32.252274
1796.117188	-282.358337
1795.154297	-195.390686
1794.190430	-97.600357
1793.226563	54.501003
1792.262695	-200.696762
1791.297852	50.896038
1790.333984	-108.519493
1789.369141	64.332443
1788.404297	64.701515
1787.439453	315.590973
1786.473633	285.848999
1785.508789	-168.612411
1784.542969	70.148788
1783.577148	257.588898
1782.611328	52.125271
1781.644531	186.188782
1780.678711	208.917984
1779.711914	194.625244
1778.745117	103.954865
1777.778320	170.931732
1776.810547	117.538155
1775.843750	-125.823776
1774.875977	-133.463440
1773.908203	-90.168747
1772.940430	120.899750
1771.971680	39.301216
1771.003906	137.130905
1770.035156	-198.221024
1769.066406	-162.542038
1768.097656	-31.490700
1767.128906	138.124039
1766.159180	137.308334
1765.189453	123.523026
1764.219727	303.031464
1763.250000	27.435860
1762.280273	208.029861
1761.309570	-24.475494
1760.338867	115.934624
1759.369141	160.332870
1758.397461	-5.974446
1757.426758	120.629639
1756.455078	391.214691
1755.484375	202.950897
1754.512695	136.223160
1753.541016	179.435287
1752.568359	387.774597
1751.596680	201.948715
1750.624023	66.226006
1749.651367	169.553467
1748.678711	374.948425
1747.706055	172.314941
1746.732422	131.504242
1745.758789	103.505402
1744.785156	99.870926
1743.811523	194.397461
1742.837891	142.536942
1741.863281	28.369959
1740.889648	278.612488
1739.915039	261.235596
1738.940430	309.874023
1737.964844	244.939362
1736.990234	298.630096
1736.014648	114.469955
1735.039063	166.134705
1734.063477	150.494217
1733.087891	230.901764
1732.111328	426.455536
1731.135742	341.570709
1730.159180	193.282791
1729.181641	100.019264
1728.205078	171.897461
1727.228516	308.977448
1726.250977	115.940460
1725.273438	102.003204
1724.295898	337.385132
1723.317383	23.580978
1722.339844	246.092636
1721.361328	292.123749
1720.382813	463.333282
1719.404297	192.537369
1718.425781	33.592129
1717.446289	255.135986
1716.467773	18.386330
1715.488281	209.227722
1714.508789	21.667603
1713.528320	163.921646
1712.548828	26.212799
1711.568359	103.397583
1710.587891	-149.015778
1709.607422	-92.827423
1708.625977	406.818115
1707.645508	77.463684
1706.664063	186.447617
1705.682617	-91.152756
1704.701172	161.133850
1703.719727	275.845123
1702.737305	53.153191
1701.754883	62.844170
1700.773438	5.817209
1699.790039	-156.216721
1698.807617	155.054916
1697.824219	-48.836254
1696.841797	18.252892
1695.858398	-243.926086
1694.875000	89.454437
1693.890625	-150.365509
1692.907227	73.057404
1691.922852	145.877594
1690.938477	-74.628403
1689.954102	-63.290211
1688.968750	248.242844
1687.984375	-4.364971
1686.999023	-61.465389
1686.013672	-192.704178
1685.028320	-56.215683
1684.041992	-44.045376
1683.056641	7.528790
1682.070313	-233.087387
1681.083984	-168.752945
1680.097656	-228.554459
1679.110352	-33.054611
1678.124023	186.543930
1677.136719	-125.776047
1676.149414	-307.504944
1675.162109	-219.471558
1674.173828	60.907368
1673.186523	87.603943
1672.198242	-188.664764
1671.209961	-204.831055
1670.221680	-6.583168
1669.232422	-87.157745
1668.243164	-16.571404
1667.254883	103.402954
1666.265625	-36.926624
1665.275391	-0.308687
1664.286133	73.052231
1663.295898	-295.543060
1662.305664	-73.689011
1661.315430	-190.746811
1660.325195	49.469223
1659.334961	155.306870
1658.343750	-15.122759
1657.352539	-209.985031
1656.361328	147.625443
1655.370117	250.523163
1654.377930	20.033543
1653.385742	31.060061
1652.393555	-68.066193
1651.401367	-8.958456
1650.409180	-29.122551
1649.416992	-131.027237
1648.423828	69.939690
1647.430664	-7.871825
1646.437500	222.766739
1645.443359	-170.685425
1644.450195	-29.210186
1643.456055	172.635422
1642.461914	-87.593231
1641.467773	-89.259521
1640.473633	14.136456
1639.478516	184.785110
1638.483398	20.642578
1637.488281	14.326939
1636.493164	70.922012
1635.498047	277.032196
1634.501953	324.320099
1633.505859	374.213898
1632.509766	439.894043
1631.513672	351.343781
1630.517578	292.425171
1629.520508	432.385590
1628.523438	182.453125
1627.526367	435.446899
1626.529297	300.542480
1625.531250	554.864624
1624.534180	521.720825
1623.536133	649.629517
1622.538086	254.126572
1621.540039	343.475342
1620.541016	447.265137
1619.541992	429.114380
1618.542969	575.647766
1617.543945	863.627563
1616.544922	711.951050
1615.545898	537.952637
1614.545898	392.248047
1613.545898	518.629456
1612.545898	798.822021
1611.544922	708.488647
1610.544922	788.281128
1609.543945	773.200500
1608.542969	657.736389
1607.541992	734.108093
1606.541016	555.931396
1605.539063	699.298767
1604.537109	790.336853
1603.535156	918.907532
1602.533203	722.640137
1601.531250	790.967957
1600.528320	645.543579
1599.525391	762.718445
1598.522461	759.094666
1597.519531	942.525208
1596.515625	920.423218
1595.512695	1061.685547
1594.508789	709.234863
1593.504883	558.768311
1592.500000	696.014038
1591.496094	676.579590
1590.491211	765.512756
1589.486328	527.998413
1588.481445	705.528015
1587.476563	745.726074
1586.470703	749.340088
1585.465820	673.585144
1584.459961	494.823425
1583.454102	648.036438
1582.447266	954.721558
1581.441406	691.383362
1580.434570	359.967377
1579.427734	550.893982
1578.420898	561.916382
1577.413086	441.499420
1576.406250	986.370667
1575.398438	692.552368
1574.390625	885.189819
1573.381836	395.858643
1572.374023	554.692261
1571.365234	732.172485
1570.356445	822.369324
1569.347656	373.097504
1568.338867	757.846436
1567.330078	517.151611
1566.320313	443.837891
1565.310547	440.659180
1564.300781	473.533630
1563.290039	474.341461
1562.280273	338.009430
1561.269531	448.635803
1560.258789	250.189407
1559.248047	234.981842
1558.237305	278.043518
1557.225586	240.878738
1556.213867	319.426208
1555.202148	416.016083
1554.190430	308.914124
1553.177734	235.323532
1552.166016	123.064949
1551.153320	408.487183
1550.140625	34.250526
1549.127930	262.515228
1548.114258	397.052612
1547.100586	222.707062
1546.086914	223.098740
1545.073242	259.406403
1544.059570	536.247253
1543.044922	307.169983
1542.031250	61.745529
1541.016602	1.349586
1540.001953	262.623077
1538.986328	153.864227
1537.971680	137.682800
1536.956055	28.089535
1535.940430	326.688507
1534.923828	190.325562
1533.908203	111.417557
1532.891602	46.205147
1531.875977	274.506866
1530.858398	14.097095
1529.841797	422.078339
1528.825195	394.381836
1527.807617	182.519653
1526.790039	54.447773
1525.772461	193.122162
1524.753906	-158.709259
1523.736328	252.221344
1522.717773	105.843597
1521.699219	119.229752
1520.680664	259.156097
1519.662109	36.690910
1518.642578	62.813545
1517.623047	43.721546
1516.603516	185.407959
1515.583984	259.786743
1514.563477	-60.951122
1513.543945	80.552452
1512.523438	-307.059540
1511.502930	-93.000824
1510.481445	31.723001
1509.460938	411.841705
1508.439453	175.048401
1507.417969	60.897308
1506.396484	112.736862
1505.374023	-48.148636
1504.352539	41.324272
1503.330078	23.298693
1502.307617	248.724396
1501.285156	68.435165
1500.261719	36.832352
1499.239258	157.542618
1498.215820	219.098419
1497.192383	89.669373
1496.167969	-89.019310
1495.144531	72.536568
1494.120117	108.455811
1493.095703	-162.982361
1492.071289	25.798988
1491.046875	137.823090
1490.021484	401.775146
1488.996094	-207.825089
1487.970703	216.716507
1486.945313	-47.961662
1485.918945	156.127106
1484.893555	133.113388
1483.867188	-107.779068
1482.840820	225.168640
1481.813477	56.496563
1480.787109	180.224579
1479.759766	235.893173
1478.732422	145.077988
1477.705078	141.445755
1476.677734	131.897552
1475.649414	279.971497
1474.621094	159.457367
1473.592773	269.502380
1472.564453	109.261482
1471.536133	152.159210
1470.506836	287.505005
1469.477539	-113.871216
1468.448242	103.764679
1467.418945	-36.064213
1466.388672	118.044968
1465.358398	122.379509
1464.328125	47.399078
1463.297852	42.363098
1462.267578	40.523228
1461.236328	-80.614357
1460.205078	42.138161
1459.173828	-18.023241
1458.142578	194.051483
1457.111328	-134.164368
1456.079102	6.075466
1455.046875	-11.020555
1454.014648	154.884140
1452.981445	-114.948105
1451.949219	-112.773323
1450.916016	3.895589
1449.882813	-32.973961
1448.849609	-143.457520
1447.816406	178.603729
1446.782227	163.940857
1445.748047	17.674900
1444.713867	115.160973
1443.679688	91.325462
1442.644531	-111.160507
1441.609375	-114.713623
1440.574219	154.814163
1439.539063	207.662704
1438.503906	-187.198669
1437.467773	-164.175186
1436.432617	-21.535532
1435.396484	-103.809357
1434.359375	-164.194824
1433.323242	106.026695
1432.286133	61.001301
1431.249023	-186.960800
1430.211914	-78.546532
1429.174805	-112.201637
1428.136719	-34.876839
1427.099609	-14.623916
1426.061523	-33.377968
1425.022461	-0.214169
1423.984375	-114.956665
1422.945313	-50.799454
1421.906250	-44.270599
1420.867188	-22.558069
1419.828125	14.329903
1418.789063	-264.285828
1417.749023	61.449135
1416.708984	-155.473511
1415.668945	-220.148972
1414.627930	-186.137390
1413.587891	43.814110
1412.546875	-245.001099
1411.505859	-126.513016
1410.464844	134.931198
1409.422852	138.356079
1408.380859	10.532365
1407.339844	-193.267883
1406.296875	-104.185051
1405.254883	3.007202
1404.212891	13.183326
1403.169922	79.827698
1402.126953	53.111496
1401.083008	-32.174946
1400.040039	294.837585
1398.996094	23.573090
1397.952148	233.366287
1396.908203	169.637573
1395.864258	-138.111649
1394.820313	202.458008
1393.775391	50.649551
1392.730469	-134.449158
1391.685547	266.128113
1390.639648	-68.140373
1389.593750	46.199047
1388.548828	95.496880
1387.502930	144.899948
1386.456055	75.536087
1385.410156	113.259796
1384.363281	0.015581
1383.316406	-16.921490
1382.269531	150.733200
1381.221680	117.333107
1380.174805	-109.235451
1379.126953	104.073990
1378.079102	109.279930
1377.031250	97.328125
1375.982422	99.817757
1374.933594	7.068691
1373.884766	95.059898
1372.835938	455.435333
1371.787109	156.966888
1370.737305	240.502472
1369.687500	65.121017
1368.637695	95.918671
1367.587891	129.220032
1366.538086	329.850677
1365.487305	-1.359360
1364.436523	221.482620
1363.385742	-138.452087
1362.333984	130.361206
1361.283203	266.038513
1360.231445	274.000000
1359.179688	239.893646
1358.127930	31.862356
1357.075195	48.557434
1356.022461	7.174322
1354.969727	141.678223
1353.916992	368.853668
1352.864258	73.203979
1351.810547	224.002075
1350.756836	-23.202728
1349.703125	270.739349
1348.649414	16.162628
1347.595703	77.815514
1346.541016	145.484222
1345.486328	211.472336
1344.431641	151.349518
1343.375977	406.512695
1342.321289	305.155518
1341.265625	67.762932
1340.209961	407.802032
1339.154297	517.572937
1338.097656	194.826569
1337.041016	248.620514
1335.985352	35.728619
1334.927734	381.323700
1333.871094	343.151550
1332.813477	261.952820
1331.756836	135.388611
1330.698242	203.996353
1329.640625	174.612259
1328.583008	415.882477
1327.524414	250.859833
1326.465820	57.089966
1325.407227	351.103424
1324.347656	289.223846
1323.289063	149.588181
1322.229492	299.779968
1321.169922	-76.690819
1320.110352	651.015930
1319.049805	321.414764
1317.989258	348.090546
1316.928711	328.301331
1315.868164	338.672363
1314.807617	320.870941
1313.746094	150.635696
1312.684570	551.166199
1311.623047	255.170715
1310.561523	556.832092
1309.499023	231.150131
1308.436523	453.464600
1307.374023	509.904633
1306.311523	347.052490
1305.249023	400.157471
1304.185547	219.956161
1303.122070	428.428406
1302.058594	209.118393
1300.995117	240.272461
1299.930664	285.018158
1298.866211	369.777374
1297.801758	393.528839
1296.737305	535.943726
1295.672852	250.539703
1294.607422	592.025879
1293.541992	408.407715
1292.476563	723.507629
1291.410156	561.815186
1290.344727	346.337311
1289.278320	284.028595
1288.211914	487.314880
1287.145508	418.145599
1286.078125	421.734314
1285.010742	586.471558
1283.943359	681.540039
1282.875977	278.442932
1281.808594	493.694031
1280.740234	250.144089
1279.671875	274.158691
1278.603516	402.949951
1277.535156	656.339294
1276.465820	573.496094
1275.397461	259.845856
1274.328125	557.766235
1273.257813	510.291870
1272.188477	562.228638
1271.118164	285.952667
1270.047852	711.240051
1268.977539	373.888794
1267.907227	438.955658
1266.835938	383.843994
1265.764648	508.545410
1264.693359	175.894058
1263.622070	411.548218
1262.550781	300.205292
1261.478516	211.135147
1260.406250	283.051727
1259.333984	400.461029
1258.260742	210.249268
1257.188477	391.252747
1256.115234	289.779114
1255.041992	344.464783
1253.967773	324.098602
1252.894531	443.487061
1251.820313	541.363037
1250.746094	602.602966
1249.671875	425.381836
1248.596680	411.144867
1247.522461	168.449997
1246.447266	40.442787
1245.372070	430.403656
1244.295898	442.552551
1243.220703	138.120819
1242.144531	371.737732
1241.068359	329.464783
1239.991211	-23.932932
1238.915039	398.963928
1237.837891	201.916916
1236.760742	162.825195
1235.683594	123.799187
1234.605469	480.403992
1233.528320	360.240143
1232.450195	-11.439134
1231.372070	-8.472245
1230.292969	417.596710
1229.214844	247.321991
1228.135742	95.703255
1227.056641	344.969299
1225.977539	419.298920
1224.897461	196.662842
1223.817383	199.889328
1222.737305	398.745056
1221.657227	448.285736
1220.577148	94.672577
1219.496094	332.286591
1218.415039	167.994980
1217.333984	398.046814
1216.252930	14.830768
1215.170898	365.082550
1214.088867	308.507050
1213.006836	344.980316
1211.924805	87.532661
1210.841797	-19.082596
1209.759766	102.374138
1208.676758	365.203430
1207.593750	83.848358
1206.509766	288.366028
1205.425781	184.258026
1204.342773	242.247498
1203.257813	40.241295
1202.173828	-86.163452
1201.088867	10.535349
1200.004883	405.070007
1198.919922	66.755211
1197.833984	-180.975418
1196.749023	-132.063477
1195.663086	-10.035980
1194.577148	-18.696266
1193.491211	69.908813
1192.404297	-41.714180
1191.318359	28.477402
1190.231445	-154.373474
1189.144531	119.369308
1188.056641	-31.782816
1186.969727	-98.389816
1185.881836	-101.751976
1184.793945	-92.465691
1183.706055	76.491508
1182.617188	-239.837601
1181.528320	13.487679
1180.439453	-11.674253
1179.350586	141.646408
1178.261719	153.186966
1177.171875	-100.858467
1176.082031	-382.905609
1174.992188	-90.870491
1173.901367	6.706683
1172.811523	-309.009552
1171.720703	33.245010
1170.629883	-30.841869
1169.538086	-42.204975
1168.447266	-62.741241
1167.355469	82.769539
1166.263672	-107.810020
1165.171875	101.155830
1164.079102	-96.803848
1162.986328	-17.807924
1161.894531	-27.519087
1160.800781	37.682808
1159.708008	-249.339905
1158.614258	190.813492
1157.520508	54.720535
1156.426758	-40.769157
1155.333008	0.860107
1154.238281	280.040558
1153.143555	58.890797
1152.048828	179.197006
1150.954102	65.415268
1149.858398	-74.016388
1148.763672	82.111107
1147.667969	206.782104
1146.571289	76.463371
1145.475586	56.206902
1144.378906	0.590671
1143.282227	-29.954037
1142.185547	97.891212
1141.088867	-25.014145
1139.991211	292.953247
1138.893555	238.332214
1137.795898	327.740997
1136.698242	163.208954
1135.599609	300.335907
1134.500977	73.223282
1133.402344	41.283310
1132.303711	285.724060
1131.204102	66.038727
1130.104492	126.103386
1129.004883	154.273560
1127.905273	52.254429
1126.805664	-4.312312
1125.705078	118.598602
1124.604492	66.500114
1123.503906	221.617935
1122.402344	72.360977
1121.301758	63.294460
1120.200195	103.555473
1119.098633	148.285080
1117.996094	255.911652
1116.894531	107.118820
1115.791992	393.192810
1114.689453	167.245605
1113.585938	200.328369
1112.483398	224.272675
1111.379883	160.352585
1110.276367	207.406891
1109.172852	203.421021
1108.068359	408.844421
1106.963867	118.880264
1105.859375	339.959320
1104.754883	168.249741
1103.650391	19.741947
1102.544922	259.747375
1101.439453	128.686279
1100.333984	236.729691
1099.227539	639.117676
1098.122070	251.897064
1097.015625	241.581802
1095.909180	331.736023
1094.801758	-140.077286
1093.695313	376.233154
1092.587891	130.249268
1091.480469	293.440643
1090.373047	255.626816
1089.264648	344.682098
1088.156250	86.783295
1087.047852	450.287109
1085.939453	191.757233
1084.830078	155.329483
1083.721680	202.238831
1082.612305	252.993835
1081.501953	94.117004
1080.392578	211.167969
1079.282227	353.427368
1078.171875	130.781647
1077.061523	-26.004278
1075.951172	156.481018
1074.839844	457.510468
1073.728516	205.454147
1072.617188	6.275309
1071.505859	433.389282
1070.393555	235.201538
1069.281250	170.198715
1068.168945	312.453430
1067.056641	75.393723
1065.943359	363.455078
1064.830078	131.924225
1063.716797	166.491043
1062.603516	175.134384
1061.489258	314.429016
1060.375977	363.806519
1059.260742	-65.372002
1058.146484	140.902237
1057.032227	358.763550
1055.916992	406.597900
1054.801758	261.529755
1053.686523	247.537079
1052.570313	293.955780
1051.455078	383.940430
1050.338867	334.363556
1049.221680	77.568069
1048.105469	256.241333
1046.988281	275.816895
1045.871094	135.268570
1044.753906	52.853664
1043.636719	155.480865
1042.518555	-10.977499
1041.400391	386.572906
1040.282227	324.445038
1039.164063	124.217560
1038.044922	272.014465
1036.925781	159.925491
1035.806641	-52.739220
1034.687500	227.002335
1033.567383	226.311844
1032.448242	167.474915
1031.328125	-129.133942
1030.207031	184.545181
1029.086914	151.084534
1027.965820	113.623795
1026.844727	58.789757
1025.723633	114.223694
1024.601563	141.661804
1023.479492	283.190216
1022.357422	56.362282
1021.235352	-83.607452
1020.113281	182.260132
1018.990234	-40.844055
1017.867188	-39.124420
1016.744141	127.736130
1015.620117	-20.455574
1014.497070	182.254166
1013.373047	137.869888
1012.248047	172.890076
1011.124023	19.351036
1009.999023	104.719658
1008.874023	119.373428
1007.749023	146.681213
1006.624023	288.819611
1005.498047	-168.327271
1004.372070	366.609741
1003.246094	258.503448
1002.120117	108.154488
1000.993164	23.765984
999.866211	293.165527
998.739258	296.152679
997.612305	-92.955246
996.484375	125.497635
995.356445	303.281708
994.228516	151.200516
993.100586	222.303802
991.971680	272.764648
990.843750	244.457108
989.714844	4.565389
988.584961	318.130096
987.456055	53.179211
986.326172	163.321136
985.196289	199.726669
984.065430	77.830986
982.935547	155.461700
981.804688	252.282150
980.673828	170.430328
979.542969	224.971649
978.411133	67.783279
977.280273	231.989746
976.148438	242.488800
975.015625	26.504787
973.883789	145.535934
972.750977	90.005791
971.618164	170.653793
970.485352	134.754425
969.351563	222.833527
968.218750	186.141327
967.084961	148.789902
965.950195	302.021210
964.816406	217.025620
963.681641	63.629444
962.546875	-81.015892
961.412109	-21.968811
960.277344	296.242493
959.141602	-279.174286
958.005859	242.326248
956.870117	81.778458
955.733398	17.986404
954.597656	-24.445589
953.460938	222.786575
952.323242	154.235565
951.186523	57.018021
950.048828	400.417969
948.911133	223.277649
947.773438	-52.224007
946.635742	-12.516418
945.497070	-100.330490
944.358398	-5.434928
943.219727	-5.644867
942.081055	156.438461
940.941406	-53.605694
939.801758	167.953430
938.662109	109.100540
937.521484	74.814072
936.381836	-44.527908
935.241211	111.147270
934.100586	-11.680108
932.958984	175.994415
931.818359	303.789948
930.676758	-3.328030
929.535156	252.846786
928.392578	52.898598
927.250977	-138.869125
926.108398	68.126587
924.965820	113.025032
923.822266	291.749939
922.678711	81.031647
921.536133	199.888947
920.391602	238.236130
919.248047	335.465546
