#Wave		#Intensity
1799.013672	65.333130
1798.050781	129.785645
1797.087891	-67.459549
1796.124023	-23.498009
1795.161133	-15.369732
1794.197266	98.902054
1793.233398	58.637051
1792.268555	-55.076042
1791.304688	150.024078
1790.339844	-121.453957
1789.375977	-49.552582
1788.411133	81.721901
1787.445313	72.214661
1786.480469	15.990360
1785.514648	97.497322
1784.549805	-17.237965
1783.583984	141.626755
1782.617188	88.040451
1781.651367	45.390511
1780.684570	178.501770
1779.718750	-2.765907
1778.751953	108.085159
1777.784180	114.025215
1776.817383	-70.737267
1775.849609	218.004639
1774.882813	-27.636051
1773.915039	25.049583
1772.947266	-143.215881
1771.978516	-28.792404
1771.010742	-15.797915
1770.041992	146.126068
1769.073242	-55.342133
1768.104492	-54.910675
1767.134766	-35.904903
1766.166016	-20.162983
1765.196289	117.939316
1764.226563	0.029129
1763.256836	0.022639
1762.287109	88.856979
1761.316406	76.414253
1760.345703	67.776260
1759.375000	50.066525
1758.404297	-34.647591
1757.433594	231.399460
1756.461914	27.477093
1755.491211	205.799500
1754.519531	232.147186
1753.546875	166.422729
1752.575195	34.497074
1751.603516	75.512955
1750.630859	175.557297
1749.658203	19.763126
1748.685547	115.206253
1747.712891	-0.119138
1746.739258	41.227688
1745.765625	-72.861488
1744.791992	132.126007
1743.818359	95.029449
1742.844727	-46.037491
1741.870117	235.047379
1740.896484	88.832703
1739.921875	-28.531317
1738.947266	-159.330780
1737.971680	-22.812283
1736.997070	30.999002
1736.021484	3.987530
1735.045898	44.887592
1734.070313	15.938072
1733.094727	-23.254004
1732.118164	0.906476
1731.141602	129.401199
1730.165039	142.630081
1729.188477	95.059441
1728.211914	-36.947021
1727.234375	-60.842079
1726.257813	45.144886
1725.280273	-37.578186
1724.302734	224.306519
1723.324219	-48.284176
1722.346680	92.734543
1721.368164	47.741417
1720.389648	36.629745
1719.411133	187.109741
1718.432617	167.695770
1717.453125	221.671890
1716.473633	-5.192318
1715.495117	256.900421
1714.514648	19.898243
1713.535156	-11.551548
1712.555664	80.752548
1711.575195	-26.581083
1710.594727	141.544937
1709.614258	236.328857
1708.632813	123.314201
1707.652344	91.962814
1706.670898	-117.114365
1705.689453	36.286678
1704.708008	-104.513817
1703.726563	195.930847
1702.744141	-81.673073
1701.761719	45.574486
1700.779297	188.706085
1699.796875	16.949593
1698.814453	186.166183
1697.831055	279.640411
1696.848633	-94.087044
1695.865234	122.138626
1694.880859	262.014130
1693.897461	-58.692696
1692.914063	19.667025
1691.929688	57.342434
1690.945313	-21.152401
1689.960938	136.572830
1688.975586	-10.417649
1687.991211	-25.914362
1687.005859	211.730576
1686.020508	127.731522
1685.035156	176.983124
1684.048828	11.906799
1683.063477	-80.749611
1682.077148	-28.229267
1681.090820	-20.678040
1680.104492	-79.604668
1679.117188	-172.709549
1678.130859	-229.591217
1677.143555	-138.920502
1676.156250	23.290638
1675.168945	-70.205360
1674.180664	22.376732
1673.193359	225.725739
1672.205078	-14.396404
1671.216797	132.018936
1670.228516	30.578663
1669.239258	-20.242273
1668.250000	242.485443
1667.261719	43.926216
1666.272461	7.818309
1665.282227	-122.377716
1664.292969	59.536377
1663.302734	26.087843
1662.312500	50.151825
1661.322266	25.031397
1660.332031	-49.871731
1659.340820	5.226158
1658.350586	89.412018
1657.359375	-21.911064
1656.368164	122.213112
1655.376953	180.608093
1654.384766	183.532516
1653.392578	85.065399
1652.400391	45.915016
1651.408203	89.348244
1650.416016	-94.509628
1649.422852	188.256638
1648.430664	219.219727
1647.437500	121.802765
1646.444336	-9.494001
1645.450195	175.084824
1644.457031	-10.140634
1643.462891	190.833359
1642.468750	194.999924
1641.474609	205.511658
1640.480469	-1.366621
1639.485352	50.734219
1638.490234	-105.691093
1637.495117	89.104736
1636.500000	45.889454
1635.504883	165.361496
1634.508789	-17.113548
1633.512695	-73.312851
1632.516602	151.043060
1631.520508	216.031509
1630.524414	59.659515
1629.527344	-145.537079
1628.530273	33.726692
1627.533203	40.608181
1626.536133	-82.800644
1625.538086	197.372330
1624.541016	463.128510
1623.542969	252.807770
1622.544922	186.660355
1621.546875	87.422707
1620.547852	122.826736
1619.548828	87.567741
1618.549805	89.302101
1617.550781	141.147141
1616.551758	145.504333
1615.552734	179.314240
1614.552734	-119.450539
1613.552734	160.764160
1612.552734	288.450653
1611.551758	369.880585
1610.551758	45.350918
1609.550781	-72.920265
1608.549805	139.862000
1607.548828	149.108948
1606.547852	-21.337502
1605.545898	102.235214
1604.543945	137.231094
1603.541992	-22.337065
1602.540039	72.678307
1601.538086	48.629826
1600.535156	15.894564
1599.532227	191.418076
1598.529297	181.238556
1597.526367	1.671484
1596.522461	126.183159
1595.519531	178.510345
1594.515625	143.679291
1593.511719	112.668289
1592.507813	127.170738
1591.502930	125.526390
1590.498047	60.493507
1589.493164	125.558502
1588.488281	257.831787
1587.483398	145.769531
1586.477539	-73.755920
1585.472656	167.454391
1584.466797	158.186218
1583.460938	43.376926
1582.454102	100.705872
1581.448242	150.666214
1580.441406	150.971161
1579.434570	186.733521
1578.427734	-75.353294
1577.419922	-118.256927
1576.413086	48.035397
1575.405273	124.358871
1574.397461	32.048496
1573.389648	101.670753
1572.380859	74.601181
1571.372070	-5.681918
1570.364258	-38.114666
1569.354492	158.686768
1568.345703	251.461761
1567.336914	-26.660093
1566.327148	58.796894
1565.317383	-162.110397
1564.307617	116.579018
1563.297852	179.284180
1562.287109	185.709625
1561.276367	68.508553
1560.265625	94.891968
1559.254883	-78.356857
1558.244141	13.099076
1557.232422	131.133682
1556.220703	16.874344
1555.208984	168.367996
1554.197266	160.529739
1553.185547	32.975883
1552.172852	81.465553
1551.160156	86.806328
1550.147461	56.428951
1549.134766	-37.411617
1548.121094	13.793131
1547.108398	-14.471576
1546.094727	237.879669
1545.080078	-20.901812
1544.066406	-87.776657
1543.052734	-51.017410
1542.038086	51.694553
1541.023438	4.140535
1540.008789	264.003235
1538.993164	15.815390
1537.978516	194.463943
1536.962891	-30.679888
1535.947266	107.414742
1534.931641	110.792824
1533.915039	204.638947
1532.899414	70.391846
1531.882813	128.703934
1530.866211	48.752090
1529.848633	127.452698
1528.832031	-2.081408
1527.814453	71.225739
1526.796875	54.904182
1525.779297	17.666712
1524.761719	9.970757
1523.743164	40.372845
1522.724609	29.083176
1521.706055	107.363358
1520.687500	163.593384
1519.668945	61.002731
1518.649414	81.148300
1517.629883	127.438568
1516.610352	179.307236
1515.590820	40.632301
1514.570313	53.414513
1513.550781	73.654594
1512.530273	234.812119
1511.509766	86.737000
1510.488281	149.386459
1509.467773	58.480186
1508.446289	144.529251
1507.424805	159.037552
1506.403320	351.641846
1505.381836	51.890076
1504.359375	126.553436
1503.336914	174.367844
1502.314453	50.483749
1501.291992	-113.601707
1500.268555	14.494390
1499.246094	87.669556
1498.222656	108.344925
1497.199219	-47.986320
1496.174805	-169.399902
1495.151367	-16.592766
1494.126953	151.465332
1493.102539	32.776981
1492.078125	395.517029
1491.053711	123.914017
1490.028320	109.186768
1489.002930	71.384338
1487.977539	203.124924
1486.952148	-86.797462
1485.926758	90.784203
1484.900391	-75.809265
1483.874023	64.692413
1482.847656	-119.316208
1481.821289	162.539932
1480.793945	125.412079
1479.766602	39.095528
1478.739258	-140.793488
1477.711914	-6.048888
1476.684570	49.061794
1475.656250	50.093613
1474.627930	143.611862
1473.599609	-149.974243
1472.571289	127.227898
1471.542969	56.898956
1470.513672	87.487053
1469.484375	67.139999
1468.455078	-62.401939
1467.425781	137.206940
1466.395508	104.349693
1465.366211	128.655853
1464.335938	-70.843727
1463.304688	-62.156605
1462.274414	42.449715
1461.243164	-117.263893
1460.212891	151.147552
1459.180664	97.682556
1458.149414	21.326000
1457.118164	51.101147
1456.085938	214.175186
1455.053711	222.249252
1454.021484	-6.914942
1452.989258	82.486298
1451.956055	145.286560
1450.922852	49.022507
1449.889648	78.710747
1448.856445	-67.523766
1447.823242	-15.276749
1446.789063	-47.018867
1445.754883	28.926720
1444.720703	70.485756
1443.686523	104.260742
1442.651367	-43.734241
1441.617188	64.508736
1440.582031	87.032631
1439.546875	63.152355
1438.510742	-35.495548
1437.475586	168.332382
1436.439453	39.110527
1435.403320	5.336025
1434.367188	-96.484352
1433.330078	52.628178
1432.292969	119.782784
1431.256836	20.075523
1430.218750	-57.855370
1429.181641	169.196457
1428.144531	196.269501
1427.106445	-34.343391
1426.068359	26.633320
1425.030273	-58.604168
1423.991211	122.271416
1422.953125	-110.193504
1421.914063	-10.418427
1420.875000	162.782867
1419.834961	-68.122375
1418.795898	179.143951
1417.755859	163.699219
1416.715820	243.902100
1415.675781	138.497559
1414.635742	168.988403
1413.594727	-20.285480
1412.553711	-19.042961
1411.512695	175.000000
1410.471680	163.772934
1409.429688	141.816269
1408.388672	85.775375
1407.346680	16.028183
1406.304688	171.300583
1405.261719	298.993713
1404.219727	201.331238
1403.176758	-92.217308
1402.133789	15.337209
1401.090820	-97.543472
1400.046875	109.557854
1399.003906	205.886368
1397.959961	127.404724
1396.916016	104.119110
1395.871094	81.506683
1394.827148	62.598991
1393.782227	8.467752
1392.737305	-19.234690
1391.692383	42.859615
1390.646484	243.709671
1389.601563	30.323626
1388.555664	231.263367
1387.509766	154.356522
1386.463867	321.306000
1385.416992	171.694229
1384.370117	65.821274
1383.323242	106.349945
1382.276367	220.366913
1381.229492	119.575996
1380.181641	353.027893
1379.133789	67.472275
1378.085938	247.324966
1377.038086	17.531939
1375.989258	221.914703
1374.941406	255.245483
1373.892578	255.255524
1372.843750	80.181366
1371.793945	230.488358
1370.745117	-17.598837
1369.695313	99.482758
1368.645508	126.707565
1367.594727	263.500275
1366.544922	155.165894
1365.494141	195.674301
1364.443359	155.947815
1363.392578	132.373779
1362.341797	-39.162426
1361.290039	74.182343
1360.238281	262.446228
1359.186523	305.127930
1358.134766	247.470184
1357.083008	159.620148
1356.030273	114.032593
1354.977539	216.378082
1353.924805	7.118152
1352.871094	227.093597
1351.818359	138.522095
1350.764648	263.615021
1349.710938	137.250458
1348.657227	242.874313
1347.602539	331.915649
1346.547852	115.135162
1345.493164	270.688660
1344.438477	321.379364
1343.383789	125.097519
1342.328125	294.973724
1341.272461	176.482071
1340.216797	82.382889
1339.161133	6.153226
1338.105469	-4.287453
1337.048828	293.585388
1335.992188	200.993439
1334.935547	68.298599
1333.877930	407.557800
1332.821289	222.399872
1331.763672	88.794731
1330.706055	129.634674
1329.648438	227.833221
1328.589844	256.935944
1327.531250	338.654205
1326.472656	140.541199
1325.414063	275.511444
1324.355469	146.086868
1323.295898	342.485199
1322.236328	140.066879
1321.176758	281.070618
1320.117188	259.914795
1319.056641	219.360352
1317.997070	253.761719
1316.936523	87.235176
1315.875977	49.286209
1314.814453	-32.189213
1313.752930	301.653107
1312.692383	227.358322
1311.630859	358.607758
1310.568359	200.845367
1309.506836	329.811188
1308.444336	316.385162
1307.381836	290.670898
1306.319336	166.219513
1305.255859	284.118896
1304.193359	276.820343
1303.129883	296.604828
1302.066406	14.393930
1301.001953	-19.141232
1299.938477	56.069298
1298.874023	188.255157
1297.809570	316.328918
1296.745117	154.999817
1295.679688	173.954910
1294.614258	139.555740
1293.548828	271.832886
1292.483398	177.114822
1291.417969	268.963287
1290.351563	98.738411
1289.286133	253.968002
1288.218750	302.495514
1287.152344	182.313995
1286.085938	382.079437
1285.018555	99.773209
1283.951172	260.903839
1282.883789	176.707870
1281.815430	243.593613
1280.748047	-62.854328
1279.679688	115.885475
1278.611328	285.818298
1277.541992	123.521561
1276.473633	110.445694
1275.404297	211.399567
1274.334961	44.657814
1273.265625	221.622986
1272.195313	55.013287
1271.125977	321.929108
1270.055664	278.659241
1268.985352	304.338379
1267.914063	3.128246
1266.843750	205.759781
1265.772461	45.385292
1264.701172	91.045624
1263.629883	130.883514
1262.557617	146.231705
1261.485352	294.532288
1260.413086	76.737587
1259.340820	53.125076
1258.268555	-0.747458
1257.195313	77.653061
1256.122070	210.209930
1255.048828	151.742630
1253.975586	86.336281
1252.901367	216.541595
1251.828125	170.978241
1250.753906	238.316940
1249.678711	134.620361
1248.604492	-5.643353
1247.529297	71.042336
1246.454102	287.229401
1245.378906	-15.093785
1244.303711	275.434235
1243.227539	291.050903
1242.151367	74.914536
1241.075195	-85.948418
1239.999023	110.918205
1238.921875	116.727478
1237.845703	3.579896
1236.768555	-97.916809
1235.690430	86.049004
1234.613281	200.935150
1233.535156	52.505672
1232.457031	86.765396
1231.378906	64.794449
1230.300781	12.700337
1229.221680	20.878838
1228.143555	111.903816
1227.063477	-100.607788
1225.984375	-51.293304
1224.905273	-7.790160
1223.825195	-46.505276
1222.745117	226.701782
1221.665039	57.773445
1220.583984	5.168997
1219.503906	-42.204811
1218.422852	-12.674566
1217.341797	119.734116
1216.259766	83.884819
1215.178711	-142.633118
1214.096680	-40.357239
1213.014648	220.703445
1211.932617	136.315582
1210.849609	50.207916
1209.766602	-45.112923
1208.683594	-108.090302
1207.600586	165.329529
1206.517578	241.329193
1205.433594	117.713615
1204.349609	17.773571
1203.265625	27.392866
1202.181641	-142.846451
1201.096680	-84.266472
1200.011719	-29.190647
1198.926758	115.702332
1197.841797	154.541382
1196.755859	-83.627510
1195.670898	-90.867058
1194.584961	-7.781577
1193.499023	141.418884
1192.412109	56.362251
1191.325195	-128.194687
1190.238281	23.710941
1189.151367	70.302750
1188.064453	77.180374
1186.976563	-7.367261
1185.889648	-156.836075
1184.800781	152.130981
1183.712891	-173.717697
1182.625000	-81.428162
1181.536133	-278.004517
1180.447266	84.529892
1179.358398	-1.323902
1178.268555	-28.670763
1177.178711	-94.484070
1176.089844	143.658417
1174.999023	98.951797
1173.909180	-47.812721
1172.818359	36.404968
1171.727539	1.920708
1170.636719	121.515732
1169.545898	-9.300234
1168.454102	-82.284653
1167.363281	100.651573
1166.271484	9.250282
1165.178711	37.437107
1164.086914	-95.793304
1162.994141	87.322098
1161.901367	-37.407352
1160.808594	-97.528526
1159.715820	-53.059021
1158.622070	382.293060
1157.528320	201.918350
1156.434570	90.690819
1155.339844	7.995985
1154.246094	179.429932
1153.151367	136.589813
1152.056641	112.540283
1150.961914	-62.818233
1149.866211	89.933647
1148.770508	-25.595282
1147.674805	63.629147
1146.579102	-57.120613
1145.483398	189.862473
1144.386719	232.579605
1143.290039	106.506012
1142.193359	227.704208
1141.095703	162.474045
1139.999023	168.970673
1138.901367	38.136475
1137.803711	102.556389
1136.705078	198.730209
1135.607422	157.643677
1134.508789	42.511131
1133.410156	255.570114
1132.310547	395.075043
1131.211914	40.891117
1130.112305	80.152061
1129.012695	169.894516
1127.913086	320.311890
1126.812500	390.456055
1125.712891	75.374619
1124.612305	57.899788
1123.510742	25.562630
1122.410156	103.282272
1121.308594	158.727386
1120.207031	-66.255157
1119.105469	-22.907551
1118.003906	-124.308807
1116.901367	35.638180
1115.798828	-29.095400
1114.696289	114.122337
1113.593750	-40.910706
1112.490234	-95.146523
1111.387695	282.203766
1110.284180	188.635422
1109.179688	105.177559
1108.076172	61.289509
1106.971680	179.736526
1105.867188	108.455391
1104.762695	140.628815
1103.657227	30.686901
1102.552734	100.525482
1101.447266	219.963562
1100.341797	265.183563
1099.235352	165.008774
1098.129883	115.626755
1097.023438	140.703506
1095.916992	49.300682
1094.809570	15.401379
1093.703125	123.680283
1092.595703	79.939331
1091.488281	29.323597
1090.379883	-66.546509
1089.272461	1.102153
1088.164063	181.377380
1087.055664	191.164917
1085.947266	115.131866
1084.837891	169.747787
1083.728516	142.504196
1082.619141	59.366081
1081.509766	115.822853
1080.400391	62.872765
1079.290039	-88.732941
1078.179688	142.933319
1077.069336	105.915688
1075.958008	132.906525
1074.847656	203.644623
1073.736328	79.597412
1072.625000	15.068037
1071.512695	212.960358
1070.401367	157.145905
1069.289063	16.341244
1068.176758	93.451546
1067.063477	60.268890
1065.951172	348.776123
1064.837891	344.464264
1063.724609	286.680359
1062.611328	268.061462
1061.497070	366.562073
1060.382813	212.416412
1059.268555	43.043663
1058.154297	266.699951
1057.040039	232.769348
1055.924805	46.213684
1054.809570	213.216965
1053.694336	84.711105
1052.578125	176.244522
1051.461914	132.047485
1050.345703	213.703308
1049.229492	6.293329
1048.113281	131.849152
1046.996094	4.233032
1045.878906	131.079178
1044.761719	-105.875710
1043.644531	-45.927208
1042.526367	83.145828
1041.408203	55.481102
1040.290039	-0.280415
1039.171875	280.205414
1038.052734	113.460960
1036.933594	-36.062035
1035.814453	47.733479
1034.695313	131.886948
1033.575195	277.217163
1032.455078	54.554306
1031.334961	229.076508
1030.214844	188.033234
1029.094727	107.800842
1027.973633	175.730682
1026.852539	219.489578
1025.731445	103.654160
1024.609375	-131.020370
1023.487305	30.350082
1022.365234	199.276672
1021.243164	62.225723
1020.121094	91.533615
1018.998047	46.595535
1017.875000	161.228897
1016.751953	143.764267
1015.627930	122.213623
1014.503906	44.876225
1013.380859	208.750198
1012.255859	98.800285
1011.131836	-35.713600
1010.006836	163.054276
1008.881836	14.864862
1007.756836	130.964798
1006.631836	204.071426
1005.505859	365.779480
1004.379883	134.206955
1003.253906	79.597580
1002.127930	103.620872
1001.000977	109.671783
999.874023	-7.596880
998.747070	9.195334
997.620117	248.118362
996.492188	307.134003
995.364258	382.007904
994.236328	206.776871
993.108398	260.768646
991.979492	287.938629
990.851563	214.158051
989.721680	58.786453
988.592773	-17.533388
987.463867	242.987732
986.333984	260.304443
985.204102	151.306931
984.073242	211.914337
982.943359	265.695465
981.812500	112.491783
980.681641	169.174515
979.550781	195.247330
978.418945	75.245827
977.288086	44.051907
976.156250	-3.916345
975.023438	131.199738
973.891602	8.326891
972.758789	54.695801
971.625977	36.297150
970.493164	269.795746
969.359375	-19.295404
968.226563	-33.294102
967.092773	-41.453594
965.958008	-105.501106
964.824219	-202.199753
963.689453	157.615234
962.554688	-28.205750
961.419922	23.744320
960.285156	79.877419
959.149414	-125.154205
958.013672	261.299286
956.877930	130.192841
955.741211	-0.540461
954.605469	-108.838623
953.468750	-85.358971
952.331055	70.913559
951.194336	231.896408
950.056641	259.045624
948.918945	107.978165
947.781250	25.981037
946.643555	111.854958
945.504883	134.318710
944.366211	194.443069
943.227539	103.966240
942.088867	33.075661
940.949219	97.475868
939.809570	150.672836
938.669922	73.139168
937.529297	194.951035
936.389648	109.357208
935.249023	-93.162956
934.108398	-112.813599
932.966797	164.188828
931.826172	214.179367
930.684570	144.545303
929.542969	-24.342621
928.400391	183.131516
927.258789	244.252319
926.116211	-89.323700
924.973633	325.250458
923.830078	-76.457718
922.687500	25.899162
921.543945	237.287903
920.399414	-4.139578
919.255859	77.262955
918.111328	2.706478
916.967773	56.350563
915.822266	190.500244
914.677734	345.709991
913.532227	-5.326056
912.387695	210.012909
911.241211	242.764420
