#Wave		#Intensity
1798.935547	-128.295883
1797.972656	-115.961487
1797.009766	109.994743
1796.045898	-3.168299
1795.083008	15.083011
1794.119141	-86.994820
1793.155273	7.768503
1792.190430	49.009392
1791.226563	121.720299
1790.261719	-63.167103
1789.297852	7.679068
1788.332031	-60.441704
1787.367188	125.098495
1786.402344	235.202835
1785.436523	13.539695
1784.470703	-29.633312
1783.504883	252.475098
1782.539063	-20.858160
1781.573242	58.236526
1780.606445	145.473114
1779.639648	-94.055412
1778.672852	87.812820
1777.706055	62.593090
1776.739258	216.851044
1775.771484	185.420685
1774.803711	122.831299
1773.835938	186.686707
1772.868164	59.883610
1771.900391	-25.057180
1770.931641	-39.780537
1769.962891	200.258072
1768.994141	143.936279
1768.025391	119.762238
1767.056641	-7.707255
1766.086914	-5.667761
1765.118164	170.349548
1764.148438	75.459908
1763.177734	67.473633
1762.208008	200.522827
1761.237305	-7.999276
1760.267578	67.520279
1759.296875	93.320892
1758.326172	-46.410950
1757.354492	131.764755
1756.383789	174.698593
1755.412109	65.685242
1754.440430	-18.898762
1753.468750	129.304672
1752.496094	117.907433
1751.524414	-46.501385
1750.551758	156.723816
1749.579102	37.884598
1748.606445	-32.755619
1747.633789	143.260529
1746.660156	-37.925415
1745.686523	-81.014122
1744.712891	62.060211
1743.739258	108.784691
1742.765625	96.437813
1741.791016	68.655029
1740.817383	13.321939
1739.842773	58.020229
1738.868164	104.620529
1737.892578	101.808823
1736.917969	193.887817
1735.942383	93.662621
1734.966797	160.059952
1733.991211	137.403534
1733.015625	-156.769318
1732.039063	8.247563
1731.062500	-13.712708
1730.085938	32.837635
1729.109375	39.075523
1728.132813	8.867027
1727.155273	-23.254911
1726.178711	-20.132694
1725.201172	-116.119980
1724.223633	109.513596
1723.245117	72.371521
1722.267578	74.288513
1721.289063	43.627598
1720.310547	-55.331905
1719.332031	198.311920
1718.352539	255.204742
1717.374023	43.392227
1716.394531	-3.656158
1715.415039	124.842529
1714.435547	37.694023
1713.456055	-36.614361
1712.475586	-76.436882
1711.495117	244.691818
1710.514648	-48.786705
1709.534180	-128.583557
1708.553711	76.543228
1707.572266	132.531982
1706.591797	112.147438
1705.610352	41.485458
1704.627930	174.629623
1703.646484	-100.245453
1702.665039	71.842422
1701.682617	-137.907257
1700.700195	159.540009
1699.717773	62.563095
1698.734375	0.000494
1697.751953	40.554794
1696.768555	3.572335
1695.785156	-2.189026
1694.801758	18.803926
1693.817383	58.885536
1692.833984	89.514793
1691.849609	64.919006
1690.865234	2.303757
1689.880859	-53.872108
1688.895508	-129.661453
1687.911133	-68.898705
1686.925781	156.193680
1685.940430	68.557327
1684.955078	8.293262
1683.968750	-15.131071
1682.983398	99.106956
1681.997070	-11.650987
1681.010742	63.364326
1680.024414	-57.975159
1679.037109	-42.410233
1678.050781	108.132538
1677.063477	-72.477135
1676.076172	103.442810
1675.088867	78.103065
1674.100586	-83.228043
1673.113281	-3.996310
1672.125000	-45.562737
1671.136719	86.861893
1670.147461	-84.836906
1669.159180	37.567730
1668.169922	1.333275
1667.180664	133.261505
1666.191406	-1.389643
1665.202148	88.306419
1664.212891	26.477709
1663.222656	-102.838669
1662.232422	-218.779144
1661.242188	-89.732605
1660.251953	-94.437767
1659.260742	-16.456629
1658.269531	98.143341
1657.279297	-225.477371
1656.287109	45.588959
1655.295898	-57.790287
1654.304688	17.294220
1653.312500	53.323147
1652.320313	48.458241
1651.328125	-67.821800
1650.335938	-20.890804
1649.342773	36.136459
1648.349609	-33.315899
1647.356445	176.749603
1646.363281	-83.850487
1645.370117	322.544891
1644.375977	-38.505825
1643.381836	32.656654
1642.388672	13.346582
1641.393555	187.661041
1640.399414	148.949036
1639.404297	88.301155
1638.410156	144.608353
1637.415039	182.717880
1636.418945	153.033615
1635.423828	99.590858
1634.427734	100.186974
1633.432617	190.610611
1632.435547	318.658020
1631.439453	186.405029
1630.443359	278.797241
1629.446289	384.357330
1628.449219	261.733185
1627.452148	288.395355
1626.455078	276.253632
1625.458008	353.771515
1624.459961	516.486816
1623.461914	165.633545
1622.463867	330.316803
1621.465820	245.824997
1620.466797	175.173325
1619.467773	293.595764
1618.468750	331.315308
1617.469727	450.397278
1616.470703	438.149353
1615.470703	300.883972
1614.471680	396.310059
1613.471680	387.350372
1612.471680	506.554382
1611.470703	308.354370
1610.470703	327.065186
1609.469727	605.604553
1608.468750	462.613464
1607.467773	560.703857
1606.465820	420.360809
1605.464844	555.967041
1604.462891	569.264221
1603.460938	474.072876
1602.458984	395.187073
1601.456055	420.489899
1600.454102	627.263611
1599.451172	440.701233
1598.448242	356.460144
1597.445313	568.857605
1596.441406	526.437439
1595.437500	604.278992
1594.433594	405.063202
1593.429688	641.736633
1592.425781	639.989929
1591.421875	559.264709
1590.416992	410.788574
1589.412109	491.319550
1588.407227	594.876709
1587.401367	580.285278
1586.396484	297.223175
1585.390625	581.115845
1584.384766	452.967407
1583.378906	434.879181
1582.373047	324.919098
1581.366211	404.434662
1580.359375	468.443756
1579.352539	545.509644
1578.345703	410.957062
1577.338867	392.538544
1576.331055	386.562073
1575.323242	263.406616
1574.315430	328.244873
1573.307617	474.940887
1572.298828	515.605713
1571.291016	406.341614
1570.282227	430.984772
1569.273438	252.468628
1568.263672	178.724945
1567.254883	379.399292
1566.245117	280.366913
1565.235352	275.505615
1564.225586	416.742493
1563.215820	161.354538
1562.205078	146.737045
1561.194336	295.452393
1560.183594	368.710449
1559.172852	266.404663
1558.162109	268.026703
1557.150391	102.199898
1556.138672	323.266907
1555.126953	236.037018
1554.115234	375.550201
1553.102539	162.448334
1552.090820	306.948273
1551.078125	91.567375
1550.065430	171.913361
1549.052734	168.978668
1548.039063	272.787537
1547.025391	234.133911
1546.011719	353.392517
1544.998047	85.493515
1543.984375	273.855164
1542.969727	178.082077
1541.956055	35.586143
1540.941406	184.536942
1539.925781	139.457306
1538.911133	91.996422
1537.895508	258.197693
1536.879883	287.124084
1535.864258	113.630867
1534.848633	333.387543
1533.833008	148.358276
1532.816406	209.425842
1531.799805	143.239227
1530.783203	114.007431
1529.766602	218.204681
1528.749023	150.332169
1527.731445	59.803291
1526.714844	313.344177
1525.696289	163.323883
1524.678711	120.876259
1523.660156	144.773544
1522.642578	125.761436
1521.624023	62.608009
1520.604492	122.820633
1519.585938	176.325821
1518.566406	78.370773
1517.546875	18.517025
1516.527344	-36.362698
1515.507813	70.012497
1514.488281	241.340988
1513.467773	128.993790
1512.447266	218.247498
1511.426758	55.833523
1510.406250	119.450478
1509.384766	96.766220
1508.363281	17.837465
1507.341797	35.052326
1506.320313	93.909752
1505.298828	144.229752
1504.276367	-84.276558
1503.253906	188.071533
1502.231445	44.101608
1501.208984	31.020643
1500.185547	49.142048
1499.163086	183.386765
1498.139648	-21.959335
1497.116211	159.351273
1496.091797	189.832672
1495.068359	32.375092
1494.043945	15.376689
1493.019531	21.621386
1491.995117	103.556915
1490.969727	-57.841892
1489.945313	-158.130692
1488.919922	-24.854095
1487.894531	-20.182558
1486.869141	225.854843
1485.842773	-100.864876
1484.817383	-31.448765
1483.791016	145.772812
1482.764648	92.213326
1481.737305	105.071091
1480.710938	-89.548775
1479.683594	-96.018379
1478.656250	-9.346855
1477.628906	99.852768
1476.600586	4.717317
1475.573242	-92.739983
1474.544922	-158.504410
1473.516602	-55.224289
1472.488281	-81.355690
1471.458984	-74.018532
1470.430664	51.830296
1469.401367	-74.949860
1468.371094	-0.668867
1467.341797	46.947197
1466.312500	-104.457283
1465.282227	79.183685
1464.251953	-80.550766
1463.221680	205.633545
1462.190430	-91.603905
1461.160156	-140.074203
1460.128906	105.507736
1459.097656	194.695541
1458.065430	-112.363235
1457.034180	105.384033
1456.001953	-64.526550
1454.969727	139.913712
1453.937500	123.964333
1452.905273	-7.521684
1451.872070	-157.663010
1450.838867	-66.874779
1449.805664	-34.130424
1448.772461	106.923569
1447.739258	21.235405
1446.705078	-74.640633
1445.670898	33.276672
1444.636719	191.371826
1443.602539	-6.991449
1442.567383	103.448921
1441.533203	25.499617
1440.498047	72.018333
1439.461914	77.525261
1438.426758	-14.665531
1437.390625	44.698853
1436.355469	3.364814
1435.319336	-92.783638
1434.282227	10.777365
1433.246094	93.273018
1432.208984	-12.283798
1431.171875	-6.230509
1430.134766	35.441380
1429.097656	-33.080215
1428.059570	39.427223
1427.021484	-224.650909
1425.983398	-6.289993
1424.945313	-199.681534
1423.907227	-110.064117
1422.868164	-31.253975
1421.829102	38.571938
1420.790039	23.637165
1419.750977	6.975553
1418.710938	-88.374832
1417.671875	106.719612
1416.631836	9.731426
1415.590820	84.083107
1414.550781	-143.071457
1413.509766	155.449219
1412.469727	1.776975
1411.428711	-205.797760
1410.386719	-143.724823
1409.345703	65.430611
1408.303711	187.568802
1407.261719	-112.565720
1406.219727	100.867233
1405.177734	166.183441
1404.134766	202.163895
1403.091797	-29.708134
1402.048828	18.433134
1401.005859	89.395874
1399.962891	81.338867
1398.918945	-28.456995
1397.875000	43.887577
1396.831055	76.769394
1395.786133	140.826721
1394.742188	106.210487
1393.697266	111.758545
1392.652344	41.418148
1391.607422	157.163956
1390.561523	259.178528
1389.516602	81.484848
1388.470703	95.773491
1387.424805	311.496002
1386.378906	170.563751
1385.332031	167.726318
1384.285156	187.062653
1383.238281	163.481674
1382.191406	105.964569
1381.144531	199.533798
1380.096680	48.503990
1379.048828	195.283981
1378.000977	176.279785
1376.953125	237.858749
1375.904297	201.114639
1374.855469	178.768921
1373.806641	181.537155
1372.757813	204.044266
1371.708984	348.732330
1370.659180	255.805054
1369.609375	263.623413
1368.559570	278.061829
1367.509766	346.734009
1366.459961	385.702362
1365.409180	309.306152
1364.358398	358.525391
1363.307617	283.510529
1362.255859	244.271851
1361.205078	363.255920
1360.153320	278.406860
1359.101563	165.742355
1358.048828	221.321655
1356.997070	291.807587
1355.944336	323.143097
1354.891602	283.296234
1353.838867	293.404266
1352.786133	114.265839
1351.732422	93.697502
1350.678711	263.045837
1349.625000	228.964905
1348.571289	301.711395
1347.516602	316.397247
1346.462891	260.030396
1345.408203	175.902206
1344.352539	284.440887
1343.297852	87.942497
1342.242188	301.431946
1341.187500	246.087555
1340.131836	274.899841
1339.075195	251.684235
1338.019531	115.530647
1336.962891	339.811432
1335.906250	121.617882
1334.849609	314.607178
1333.791992	336.117523
1332.735352	205.179260
1331.677734	215.027466
1330.620117	194.808228
1329.562500	230.203857
1328.503906	134.525024
1327.445313	72.618774
1326.386719	215.685699
1325.328125	189.348755
1324.269531	269.915466
1323.209961	306.263733
1322.150391	483.659851
1321.090820	97.193848
1320.031250	212.781586
1318.970703	249.387146
1317.910156	125.717003
1316.849609	236.128662
1315.789063	211.047775
1314.728516	339.205139
1313.666992	15.052971
1312.605469	213.403275
1311.543945	76.756638
1310.482422	145.654633
1309.419922	180.457397
1308.357422	48.806507
1307.294922	349.035767
1306.232422	268.701630
1305.169922	172.003143
1304.106445	267.049194
1303.042969	173.455948
1301.979492	204.538818
1300.916016	297.361084
1299.851563	219.277771
1298.787109	-17.269125
1297.722656	113.891052
1296.658203	166.985855
1295.592773	127.386871
1294.528320	293.238647
1293.462891	239.670914
1292.397461	282.963898
1291.331055	257.688385
1290.265625	152.746964
1289.199219	225.515167
1288.132813	295.380188
1287.065430	285.000610
1285.999023	229.579132
1284.931641	127.378891
1283.864258	339.722626
1282.796875	127.007210
1281.728516	159.095398
1280.661133	109.299400
1279.592773	295.360168
1278.524414	198.865784
1277.455078	170.302902
1276.386719	191.505539
1275.317383	100.510941
1274.248047	268.523132
1273.178711	144.929230
1272.108398	169.827972
1271.039063	285.886566
1269.968750	182.370544
1268.898438	237.751694
1267.827148	210.268600
1266.756836	141.409134
1265.685547	-7.899963
1264.614258	192.342239
1263.541992	189.573166
1262.470703	-28.908121
1261.398438	100.803467
1260.326172	-43.453217
1259.253906	-61.146324
1258.181641	193.307220
1257.108398	81.286743
1256.035156	114.374580
1254.961914	106.728279
1253.888672	196.928223
1252.814453	129.979614
1251.740234	-4.987532
1250.666016	274.383545
1249.591797	84.257156
1248.516602	108.263687
1247.442383	14.843315
1246.367188	74.383896
1245.291992	110.107231
1244.215820	148.754379
1243.140625	80.524780
1242.064453	18.163464
1240.988281	-0.585689
1239.911133	-39.616776
1238.834961	21.241323
1237.757813	82.103989
1236.680664	127.886589
1235.603516	177.739059
1234.525391	-94.297539
1233.448242	-100.611183
1232.370117	-39.065018
1231.291016	100.732407
1230.212891	-38.826584
1229.133789	141.520294
1228.055664	29.862278
1226.976563	-31.336597
1225.896484	187.181793
1224.817383	3.290472
1223.737305	-93.105957
1222.657227	75.587456
1221.577148	94.387299
1220.496094	-6.535673
1219.416016	167.295639
1218.334961	98.234955
1217.253906	-76.565964
1216.171875	75.263855
1215.090820	102.808815
1214.008789	-70.103600
1212.926758	35.466110
1211.843750	223.004486
1210.761719	-15.026520
1209.678711	28.740225
1208.595703	108.856972
1207.512695	40.088821
1206.428711	41.736107
1205.345703	187.000626
1204.261719	74.462036
1203.177734	1.756268
1202.092773	-11.543396
1201.008789	76.588036
1199.923828	-123.957962
1198.838867	-39.285484
1197.753906	37.291237
1196.667969	4.443670
1195.582031	-16.877144
1194.496094	8.432545
1193.410156	133.854385
1192.324219	20.472607
1191.237305	-91.135094
1190.150391	-40.530842
1189.063477	-6.624333
1187.975586	-38.263870
1186.888672	-8.975565
1185.800781	-4.413538
1184.712891	-232.513184
1183.624023	-73.991531
1182.536133	114.888107
1181.447266	-141.819733
1180.358398	-122.918343
1179.269531	-118.955101
1178.179688	-23.201954
1177.090820	-216.034256
1176.000977	120.544884
1174.911133	48.150166
1173.820313	-4.160790
1172.729492	-73.087486
1171.639648	-73.808876
1170.547852	-17.827927
1169.457031	-31.766426
1168.366211	-84.084839
1167.274414	73.726295
1166.182617	-53.042702
1165.089844	-150.588928
1163.998047	45.416634
1162.905273	-31.556471
1161.812500	-44.460037
1160.719727	-67.673210
1159.625977	-86.896835
1158.533203	-81.558281
1157.439453	-79.674515
1156.345703	20.454630
1155.250977	-21.717972
1154.157227	20.622683
1153.062500	-99.811043
1151.967773	-48.962212
1150.872070	-39.256912
1149.777344	67.992340
1148.681641	-16.523491
1147.585938	-80.502495
1146.490234	82.482635
1145.393555	-145.756042
1144.296875	101.475555
1143.201172	121.744690
1142.103516	-92.216072
1141.006836	57.901852
1139.909180	25.662045
1138.811523	34.398895
1137.713867	109.137138
1136.616211	-190.157562
1135.517578	33.050476
1134.418945	190.695389
1133.320313	4.084175
1132.221680	-45.426651
1131.122070	36.390881
1130.022461	-18.304815
1128.922852	88.963882
1127.823242	64.311111
1126.723633	-139.334061
1125.623047	-33.374443
1124.522461	-35.971512
1123.421875	10.215675
1122.320313	159.082550
1121.219727	-63.894779
1120.118164	-56.455650
1119.015625	-31.481895
1117.914063	-42.299843
1116.811523	86.900459
1115.709961	76.529167
1114.606445	89.351151
1113.503906	91.349670
1112.401367	321.627228
1111.297852	132.573715
1110.194336	271.459167
1109.089844	-64.829506
1107.986328	-43.252857
1106.881836	121.452713
1105.777344	246.423355
1104.672852	162.525513
1103.567383	122.158325
1102.462891	78.359787
1101.357422	-71.772980
1100.250977	82.780350
1099.145508	111.181900
1098.039063	170.020645
1096.932617	85.287704
1095.826172	110.665459
1094.719727	17.388794
1093.612305	310.250488
1092.504883	-85.694183
1091.397461	98.588028
1090.290039	49.715561
1089.181641	133.921432
1088.074219	155.994553
1086.965820	104.126961
1085.856445	142.976013
1084.748047	-134.441498
1083.638672	159.573715
1082.529297	-44.062408
1081.419922	104.354546
1080.309570	213.221283
1079.199219	482.997620
1078.089844	109.760750
1076.978516	303.894897
1075.868164	91.072205
1074.756836	30.156435
1073.645508	119.364304
1072.534180	82.505501
1071.422852	94.504471
1070.310547	92.932007
1069.198242	92.977242
1068.085938	244.645218
1066.973633	96.218559
1065.860352	87.618668
1064.747070	156.995636
1063.633789	125.785919
1062.520508	235.947693
1061.406250	236.005692
1060.291992	57.027725
1059.177734	303.765472
1058.063477	-93.442970
1056.949219	302.766388
1055.833984	74.853714
1054.718750	144.541763
1053.603516	181.626938
1052.487305	215.815811
1051.371094	142.941193
1050.254883	358.951355
1049.138672	118.531570
1048.022461	146.796646
1046.905273	271.218750
1045.788086	134.233841
1044.670898	41.976952
1043.553711	-51.438595
1042.435547	220.205994
1041.317383	29.922379
1040.199219	296.247742
1039.080078	104.744652
1037.961914	231.118668
1036.842773	235.035126
1035.723633	203.690628
1034.604492	215.265427
1033.484375	196.609436
1032.364258	-10.744091
1031.244141	189.761826
1030.124023	231.679810
1029.002930	129.047729
1027.881836	35.857143
1026.760742	66.937531
1025.639648	187.098862
1024.517578	65.838486
1023.396484	115.032211
1022.274414	9.826151
1021.151367	191.926331
1020.029297	57.630867
1018.906250	43.538109
1017.783203	-31.293070
1016.660156	266.618713
1015.536133	-44.269936
1014.413086	195.509460
1013.289063	242.701111
1012.165039	179.712631
1011.040039	188.362411
1009.915039	156.357544
1008.791016	124.843147
1007.665039	74.917061
1006.540039	343.702667
1005.414063	183.090912
1004.288086	-31.941170
1003.162109	182.604462
1002.036133	257.144135
1000.909180	162.357224
999.782227	-17.333164
998.655273	18.122105
997.528320	209.269958
996.400391	66.007317
995.272461	178.194595
994.144531	208.248383
993.016602	64.266411
991.887695	62.589451
990.758789	185.410721
989.629883	162.501831
988.500977	264.605286
987.371094	296.294800
986.242188	63.999191
985.111328	28.616100
983.981445	139.161758
982.851563	263.955139
981.720703	98.396774
980.589844	88.120232
979.458008	223.073761
978.327148	72.294876
977.195313	140.198654
976.063477	180.381119
974.931641	196.723328
973.798828	217.385345
972.666992	53.097313
971.534180	196.644730
970.400391	193.868683
969.267578	98.917885
968.133789	-47.357079
967.000000	277.663849
965.866211	78.336594
964.731445	289.511932
963.597656	-53.680508
962.462891	39.401718
961.327148	163.189072
960.192383	143.159256
959.056641	-70.153091
957.920898	68.195869
956.785156	-74.747444
955.648438	71.621407
954.512695	71.018837
953.375977	101.117531
952.239258	148.713745
951.101563	119.256172
949.963867	98.523109
948.826172	7.947751
947.688477	-4.123922
946.550781	-22.857861
945.412109	90.641617
944.273438	-44.093182
943.134766	134.513992
941.996094	78.132904
940.856445	201.616516
939.716797	233.928070
938.577148	207.477798
937.436523	171.083878
936.296875	46.944214
935.156250	-5.993767
934.015625	76.886070
932.874023	74.195602
931.732422	92.790359
930.591797	102.002899
929.449219	-95.800957
928.307617	-21.583458
927.165039	-0.012459
926.022461	137.997849
924.879883	271.501770
923.737305	164.273697
922.593750	85.984505
921.450195	73.794266
920.306641	202.521988
919.163086	39.374832
918.018555	67.394653
916.874023	116.084999
915.729492	56.029030
914.583984	200.077774
913.439453	118.604561
912.293945	56.727764
