#Wave		#Intensity
1799.006836	100.215424
1798.043945	-9.926600
1797.081055	-28.719967
1796.117188	94.585632
1795.154297	213.366592
1794.190430	18.861975
1793.226563	50.114052
1792.262695	-15.854753
1791.297852	-74.016747
1790.333984	42.873421
1789.369141	40.506485
1788.404297	-42.798122
1787.439453	31.336071
1786.473633	1.841808
1785.508789	52.046055
1784.542969	-8.448823
1783.577148	123.303864
1782.611328	58.995567
1781.644531	2.474325
1780.678711	-44.912773
1779.711914	120.449791
1778.745117	-77.545174
1777.778320	-25.944454
1776.810547	41.787724
1775.843750	11.989785
1774.875977	71.988632
1773.908203	-8.801614
1772.940430	104.821320
1771.971680	97.672264
1771.003906	203.533112
1770.035156	-3.631081
1769.066406	-91.974243
1768.097656	56.477421
1767.128906	78.486771
1766.159180	44.383549
1765.189453	153.434143
1764.219727	-14.689390
1763.250000	8.666959
1762.280273	-4.043495
1761.309570	-94.698807
1760.338867	-2.394547
1759.369141	142.080215
1758.397461	88.823051
1757.426758	-85.368126
1756.455078	102.155914
1755.484375	70.904549
1754.512695	-66.481140
1753.541016	173.723877
1752.568359	61.460274
1751.596680	133.150772
1750.624023	123.174530
1749.651367	81.091423
1748.678711	98.152245
1747.706055	178.176620
1746.732422	46.223602
1745.758789	29.918402
1744.785156	-67.248909
1743.811523	-10.317572
1742.837891	-73.391739
1741.863281	68.857338
1740.889648	98.197983
1739.915039	-15.500175
1738.940430	71.560760
1737.964844	86.776108
1736.990234	77.674202
1736.014648	5.766071
1735.039063	32.568741
1734.063477	78.594307
1733.087891	12.543829
1732.111328	-84.227684
1731.135742	23.301430
1730.159180	79.572266
1729.181641	-31.210590
1728.205078	-3.069071
1727.228516	-65.114906
1726.250977	71.107697
1725.273438	17.388969
1724.295898	301.886078
1723.317383	12.939662
1722.339844	61.557751
1721.361328	-45.107563
1720.382813	124.232864
1719.404297	-3.444459
1718.425781	73.907326
1717.446289	12.048507
1716.467773	31.316843
1715.488281	86.940010
1714.508789	111.932594
1713.528320	-28.943535
1712.548828	-5.180397
1711.568359	122.492409
1710.587891	34.659653
1709.607422	176.328201
1708.625977	54.114086
1707.645508	137.140274
1706.664063	39.858105
1705.682617	217.750214
1704.701172	74.042206
1703.719727	-19.300545
1702.737305	57.320137
1701.754883	-9.249468
1700.773438	-14.672454
1699.790039	-30.943714
1698.807617	164.608490
1697.824219	21.811592
1696.841797	155.009598
1695.858398	2.771262
1694.875000	130.207825
1693.890625	30.774708
1692.907227	51.476852
1691.922852	-127.249084
1690.938477	23.011765
1689.954102	6.909378
1688.968750	125.356857
1687.984375	121.332497
1686.999023	117.301117
1686.013672	127.243347
1685.028320	21.146597
1684.041992	-1.856636
1683.056641	55.069088
1682.070313	-22.400166
1681.083984	-15.543167
1680.097656	-67.588318
1679.110352	116.640503
1678.124023	234.346619
1677.136719	-12.065086
1676.149414	10.678251
1675.162109	-0.112703
1674.173828	124.507889
1673.186523	-45.688614
1672.198242	15.046782
1671.209961	34.039017
1670.221680	81.496246
1669.232422	91.632050
1668.243164	108.105263
1667.254883	81.650307
1666.265625	-2.920464
1665.275391	-11.666844
1664.286133	-29.203281
1663.295898	-85.251373
1662.305664	168.056046
1661.315430	70.380737
1660.325195	70.571037
1659.334961	224.083160
1658.343750	205.969452
1657.352539	63.023663
1656.361328	58.235729
1655.370117	109.573105
1654.377930	106.058029
1653.385742	154.866928
1652.393555	-14.292978
1651.401367	21.970585
1650.409180	117.437103
1649.416992	11.418762
1648.423828	11.193388
1647.430664	-4.112580
1646.437500	124.703690
1645.443359	-103.855263
1644.450195	150.772507
1643.456055	140.558228
1642.461914	58.699970
1641.467773	55.473301
1640.473633	172.939468
1639.478516	-4.957361
1638.483398	112.501236
1637.488281	30.837936
1636.493164	1.354681
1635.498047	240.620056
1634.501953	140.206848
1633.505859	-78.120804
1632.509766	24.291603
1631.513672	61.449158
1630.517578	60.362827
1629.520508	37.960587
1628.523438	283.924835
1627.526367	75.381264
1626.529297	17.982948
1625.531250	112.239555
1624.534180	32.991314
1623.536133	33.322350
1622.538086	201.498810
1621.540039	54.107838
1620.541016	145.887848
1619.541992	203.867554
1618.542969	84.164864
1617.543945	-34.206814
1616.544922	160.837692
1615.545898	97.588684
1614.545898	198.167618
1613.545898	79.974548
1612.545898	90.595177
1611.544922	-96.213165
1610.544922	135.011139
1609.543945	122.583412
1608.542969	75.852203
1607.541992	194.609253
1606.541016	289.635590
1605.539063	156.862122
1604.537109	141.472733
1603.535156	56.884163
1602.533203	107.700134
1601.531250	222.753922
1600.528320	183.793594
1599.525391	148.625809
1598.522461	178.940277
1597.519531	79.066322
1596.515625	-26.359098
1595.512695	118.051491
1594.508789	107.379448
1593.504883	29.517071
1592.500000	186.966766
1591.496094	126.620979
1590.491211	191.987717
1589.486328	121.768196
1588.481445	100.123283
1587.476563	165.575684
1586.470703	-40.639038
1585.465820	-9.910233
1584.459961	75.506035
1583.454102	126.139290
1582.447266	170.557831
1581.441406	-76.232117
1580.434570	156.421021
1579.427734	51.329266
1578.420898	158.577820
1577.413086	126.810448
1576.406250	-74.864624
1575.398438	80.210548
1574.390625	105.038673
1573.381836	-71.623024
1572.374023	12.201950
1571.365234	138.157791
1570.356445	97.427628
1569.347656	-13.246113
1568.338867	83.661697
1567.330078	49.294327
1566.320313	-9.181892
1565.310547	-16.211540
1564.300781	38.075714
1563.290039	54.003582
1562.280273	86.696373
1561.269531	19.203642
1560.258789	7.438953
1559.248047	27.257021
1558.237305	-36.332676
1557.225586	29.909908
1556.213867	-60.148285
1555.202148	161.222931
1554.190430	-115.867836
1553.177734	70.921242
1552.166016	18.164515
1551.153320	151.249100
1550.140625	2.920485
1549.127930	27.462086
1548.114258	207.473328
1547.100586	130.896820
1546.086914	92.014954
1545.073242	-12.150077
1544.059570	85.333061
1543.044922	60.173481
1542.031250	19.693363
1541.016602	28.540749
1540.001953	46.673916
1538.986328	-91.566948
1537.971680	68.896210
1536.956055	-42.106934
1535.940430	-84.090530
1534.923828	91.157448
1533.908203	-137.110657
1532.891602	-55.910381
1531.875977	-1.108761
1530.858398	12.496838
1529.841797	123.895523
1528.825195	-24.013479
1527.807617	-1.647149
1526.790039	141.771317
1525.772461	-16.346298
1524.753906	40.534397
1523.736328	68.615196
1522.717773	5.886653
1521.699219	131.007080
1520.680664	74.537659
1519.662109	27.962454
1518.642578	102.252235
1517.623047	-30.665890
1516.603516	191.451874
1515.583984	19.460175
1514.563477	-28.036655
1513.543945	80.781517
1512.523438	94.657478
1511.502930	65.719101
1510.481445	-73.984222
1509.460938	66.797806
1508.439453	-40.907837
1507.417969	-28.584883
1506.396484	-31.501757
1505.374023	-16.027189
1504.352539	79.624565
1503.330078	103.747742
1502.307617	130.977386
1501.285156	-119.197578
1500.261719	32.811939
1499.239258	19.289549
1498.215820	113.306488
1497.192383	99.875908
1496.167969	-70.405983
1495.144531	31.078350
1494.120117	-74.311729
1493.095703	-53.911003
1492.071289	87.323105
1491.046875	-51.374447
1490.021484	50.882969
1488.996094	53.789589
1487.970703	-11.508503
1486.945313	177.396500
1485.918945	153.636581
1484.893555	78.188766
1483.867188	35.094383
1482.840820	-51.151459
1481.813477	-43.566414
1480.787109	3.656559
1479.759766	92.284897
1478.732422	193.108841
1477.705078	-63.100071
1476.677734	7.432137
1475.649414	54.877666
1474.621094	-27.114655
1473.592773	62.988918
1472.564453	32.805122
1471.536133	-22.819317
1470.506836	13.344274
1469.477539	-61.574177
1468.448242	19.031315
1467.418945	-89.117546
1466.388672	194.279007
1465.358398	-124.908211
1464.328125	35.356968
1463.297852	118.590675
1462.267578	-30.398975
1461.236328	83.241806
1460.205078	65.969940
1459.173828	45.133560
1458.142578	147.976334
1457.111328	84.854691
1456.079102	61.176956
1455.046875	-9.658422
1454.014648	84.878326
1452.981445	90.448654
1451.949219	15.003119
1450.916016	30.395462
1449.882813	-25.535320
1448.849609	133.930969
1447.816406	17.059917
1446.782227	-7.216130
1445.748047	1.826319
1444.713867	47.187706
1443.679688	254.515442
1442.644531	28.701645
1441.609375	121.316643
1440.574219	246.564987
1439.539063	77.831863
1438.503906	21.496130
1437.467773	6.872068
1436.432617	65.332466
1435.396484	-7.675644
1434.359375	16.492422
1433.323242	112.478539
1432.286133	231.384933
1431.249023	24.850138
1430.211914	117.943855
1429.174805	155.037109
1428.136719	84.952072
1427.099609	-10.921154
1426.061523	-4.350643
1425.022461	5.279915
1423.984375	38.454426
1422.945313	400.202087
1421.906250	106.736458
1420.867188	78.700958
1419.828125	192.657974
1418.789063	108.231407
1417.749023	-29.605507
1416.708984	259.365265
1415.668945	145.114365
1414.627930	252.028214
1413.587891	-78.262184
1412.546875	-28.865002
1411.505859	161.059555
1410.464844	165.498154
1409.422852	100.974319
1408.380859	244.134766
1407.339844	9.399365
1406.296875	131.643127
1405.254883	-47.693386
1404.212891	66.257736
1403.169922	96.301163
1402.126953	79.654953
1401.083008	237.410034
1400.040039	-7.352240
1398.996094	73.825111
1397.952148	-40.760033
1396.908203	225.492706
1395.864258	117.630020
1394.820313	172.036972
1393.775391	221.685745
1392.730469	259.412994
1391.685547	35.254066
1390.639648	154.430435
1389.593750	198.298508
1388.548828	21.089420
1387.502930	-7.809260
1386.456055	185.587296
1385.410156	100.046577
1384.363281	108.940895
1383.316406	-44.502151
1382.269531	154.356339
1381.221680	263.066925
1380.174805	38.861839
1379.126953	241.925461
1378.079102	184.924057
1377.031250	258.593689
1375.982422	133.755219
1374.933594	233.739227
1373.884766	160.920944
1372.835938	156.707840
1371.787109	119.791016
1370.737305	314.612244
1369.687500	93.792786
1368.637695	168.994019
1367.587891	46.617004
1366.538086	248.066238
1365.487305	126.421448
1364.436523	83.400291
1363.385742	140.957550
1362.333984	24.919689
1361.283203	262.104614
1360.231445	188.992233
1359.179688	233.619766
1358.127930	238.479065
1357.075195	-14.995695
1356.022461	166.980011
1354.969727	93.037735
1353.916992	86.256699
1352.864258	320.486206
1351.810547	49.120129
1350.756836	-109.365852
1349.703125	6.877524
1348.649414	19.351875
1347.595703	68.630096
1346.541016	-4.174941
1345.486328	38.071838
1344.431641	67.316353
1343.375977	173.007584
1342.321289	191.652313
1341.265625	26.767536
1340.209961	171.033936
1339.154297	100.430145
1338.097656	29.898542
1337.041016	-97.353523
1335.985352	171.824982
1334.927734	207.320282
1333.871094	6.343537
1332.813477	151.908585
1331.756836	76.419151
1330.698242	50.038910
1329.640625	125.931030
1328.583008	162.262268
1327.524414	96.450539
1326.465820	162.377014
1325.407227	71.300072
1324.347656	2.133868
1323.289063	169.662674
1322.229492	103.541901
1321.169922	-50.391487
1320.110352	48.761993
1319.049805	164.417679
1317.989258	134.472443
1316.928711	-32.143955
1315.868164	126.005066
1314.807617	-20.430565
1313.746094	212.524277
1312.684570	49.129025
1311.623047	146.056580
1310.561523	-46.608047
1309.499023	235.741241
1308.436523	-37.986374
1307.374023	74.908852
1306.311523	71.349792
1305.249023	204.829651
1304.185547	26.712023
1303.122070	-82.527702
1302.058594	26.910789
1300.995117	-23.463215
1299.930664	166.454269
1298.866211	113.199013
1297.801758	168.035172
1296.737305	262.799194
1295.672852	149.207382
1294.607422	137.201294
1293.541992	53.074314
1292.476563	82.214615
1291.410156	49.207886
1290.344727	339.299286
1289.278320	35.503456
1288.211914	160.265488
1287.145508	166.647827
1286.078125	-7.964337
1285.010742	180.064362
1283.943359	35.440937
1282.875977	-70.454262
1281.808594	-38.143223
1280.740234	33.968784
1279.671875	86.184486
1278.603516	5.032179
1277.535156	113.427338
1276.465820	70.937973
1275.397461	100.401649
1274.328125	34.017384
1273.257813	22.607979
1272.188477	95.943947
1271.118164	104.429535
1270.047852	106.508804
1268.977539	28.618713
1267.907227	191.285583
1266.835938	158.384262
1265.764648	114.429474
1264.693359	20.340117
1263.622070	87.289001
1262.550781	-116.350891
1261.478516	15.926220
1260.406250	100.367889
1259.333984	167.307053
1258.260742	122.357468
1257.188477	79.195763
1256.115234	175.258469
1255.041992	151.341400
1253.967773	143.743912
1252.894531	128.019897
1251.820313	55.278927
1250.746094	94.869431
1249.671875	93.736641
1248.596680	87.958298
1247.522461	205.463669
1246.447266	190.381958
1245.372070	220.067856
1244.295898	-26.270937
1243.220703	-36.621300
1242.144531	40.741280
1241.068359	118.660713
1239.991211	-115.237808
1238.915039	169.925461
1237.837891	106.751572
1236.760742	66.819252
1235.683594	62.874031
1234.605469	-76.211334
1233.528320	18.460901
1232.450195	131.063141
1231.372070	-5.045168
1230.292969	210.666977
1229.214844	85.609482
1228.135742	7.519689
1227.056641	59.770737
1225.977539	61.045624
1224.897461	66.942734
1223.817383	31.741411
1222.737305	193.300446
1221.657227	-21.271875
1220.577148	-1.493228
1219.496094	76.099510
1218.415039	-48.136185
1217.333984	53.122322
1216.252930	6.954034
1215.170898	109.296188
1214.088867	-147.171982
1213.006836	8.281368
1211.924805	167.703476
1210.841797	139.405609
1209.759766	32.608669
1208.676758	42.996799
1207.593750	-55.108185
1206.509766	267.351044
1205.425781	-14.770461
1204.342773	12.865787
1203.257813	13.372297
1202.173828	69.777946
1201.088867	154.376587
1200.004883	75.879059
1198.919922	84.951714
1197.833984	92.267776
1196.749023	5.140652
1195.663086	-119.393707
1194.577148	66.326981
1193.491211	79.323112
1192.404297	-46.937523
1191.318359	-75.952377
1190.231445	19.231340
1189.144531	-76.528229
1188.056641	12.243994
1186.969727	-49.037243
1185.881836	-26.432446
1184.793945	167.905853
1183.706055	-3.724107
1182.617188	-58.742863
1181.528320	-43.723778
1180.439453	72.856956
1179.350586	-89.537857
1178.261719	64.816757
1177.171875	57.310253
1176.082031	36.012402
1174.992188	81.781021
1173.901367	49.529411
1172.811523	75.154289
1171.720703	58.898331
1170.629883	-10.663183
1169.538086	-11.496939
1168.447266	114.773972
1167.355469	96.668388
1166.263672	108.302719
1165.171875	162.247162
1164.079102	-60.814194
1162.986328	136.085220
1161.894531	-47.480991
1160.800781	-4.570958
1159.708008	3.984129
1158.614258	30.782261
1157.520508	-22.476917
1156.426758	117.935997
1155.333008	144.573166
1154.238281	-5.323517
1153.143555	108.602470
1152.048828	54.027306
1150.954102	-29.675549
1149.858398	43.532547
1148.763672	96.132637
1147.667969	8.341215
1146.571289	201.684464
1145.475586	106.402435
1144.378906	-47.036140
1143.282227	230.976044
1142.185547	55.826618
1141.088867	65.282127
1139.991211	36.517109
1138.893555	-32.716919
1137.795898	18.156179
1136.698242	82.617279
1135.599609	74.720177
1134.500977	-24.830797
1133.402344	41.144463
1132.303711	14.903254
1131.204102	117.117836
1130.104492	-99.119110
1129.004883	30.250484
1127.905273	82.796402
1126.805664	154.011749
1125.705078	81.993423
1124.604492	81.503761
1123.503906	-80.860611
1122.402344	23.577621
1121.301758	1.927586
1120.200195	124.911057
1119.098633	188.215912
1117.996094	-24.791275
1116.894531	249.345215
1115.791992	89.584549
1114.689453	-11.788984
1113.585938	21.686693
1112.483398	219.969666
1111.379883	112.770668
1110.276367	23.109543
1109.172852	138.962845
1108.068359	-83.274963
1106.963867	91.275963
1105.859375	-26.304287
1104.754883	-80.538162
1103.650391	124.811646
1102.544922	234.991364
1101.439453	-24.149588
1100.333984	125.446877
1099.227539	39.229984
1098.122070	59.215881
1097.015625	35.049477
1095.909180	140.162003
1094.801758	-31.546410
1093.695313	144.528778
1092.587891	11.692680
1091.480469	147.462173
1090.373047	0.994573
1089.264648	132.603302
1088.156250	149.031021
1087.047852	26.103504
1085.939453	131.465317
1084.830078	166.246582
1083.721680	139.523605
1082.612305	126.244987
1081.501953	-17.791540
1080.392578	8.797356
1079.282227	150.143982
1078.171875	19.466703
1077.061523	-63.960487
1075.951172	84.388390
1074.839844	96.447075
1073.728516	245.652481
1072.617188	249.075500
1071.505859	222.055099
1070.393555	217.435898
1069.281250	-47.452316
1068.168945	42.211819
1067.056641	25.588091
1065.943359	-76.485947
1064.830078	213.878342
1063.716797	116.688377
1062.603516	136.194305
1061.489258	228.545410
1060.375977	82.348694
1059.260742	-98.111000
1058.146484	99.956467
1057.032227	-99.096046
1055.916992	99.824272
1054.801758	7.709248
1053.686523	53.381775
1052.570313	74.845604
1051.455078	156.148819
1050.338867	107.408569
1049.221680	-66.816620
1048.105469	197.771317
1046.988281	220.396988
1045.871094	122.633842
1044.753906	118.234047
1043.636719	178.615265
1042.518555	136.546722
1041.400391	122.913246
1040.282227	127.633965
1039.164063	8.211040
1038.044922	80.352875
1036.925781	133.936783
1035.806641	131.003021
1034.687500	-9.925239
1033.567383	164.471924
1032.448242	138.365799
1031.328125	-16.165579
1030.207031	177.346069
1029.086914	89.047104
1027.965820	72.603981
1026.844727	166.451385
1025.723633	14.924042
1024.601563	-8.486838
1023.479492	28.742531
1022.357422	147.735474
1021.235352	-5.738721
1020.113281	53.439369
1018.990234	197.646820
1017.867188	197.550903
1016.744141	71.603546
1015.620117	344.464813
1014.497070	181.631805
1013.373047	172.224518
1012.248047	217.192276
1011.124023	150.885178
1009.999023	183.408142
1008.874023	204.145905
1007.749023	241.439117
1006.624023	163.097672
1005.498047	-47.474442
1004.372070	191.588806
1003.246094	15.858554
1002.120117	115.879570
1000.993164	95.354355
999.866211	193.983765
998.739258	142.188080
997.612305	40.964207
996.484375	84.893761
995.356445	45.016308
994.228516	172.934265
993.100586	23.163143
991.971680	59.976105
990.843750	260.582764
989.714844	160.933258
988.584961	52.901787
987.456055	142.929886
986.326172	113.849594
985.196289	273.847229
984.065430	91.889297
982.935547	104.539101
981.804688	234.249588
980.673828	78.070267
979.542969	23.518648
978.411133	-0.750738
977.280273	180.911270
976.148438	8.416756
975.015625	97.553017
973.883789	108.183594
972.750977	6.660019
971.618164	130.726837
970.485352	75.910881
969.351563	174.859680
968.218750	299.038239
967.084961	71.886139
965.950195	271.838654
964.816406	89.755318
963.681641	133.494186
962.546875	79.065155
961.412109	96.686974
960.277344	108.137474
959.141602	-52.833008
958.005859	24.994778
956.870117	136.244385
955.733398	-80.534309
954.597656	15.620434
953.460938	-33.005180
952.323242	23.812748
951.186523	128.331863
950.048828	34.306164
948.911133	47.890160
947.773438	116.285072
946.635742	16.501213
945.497070	160.952499
944.358398	100.483276
943.219727	-40.743813
942.081055	42.392410
940.941406	17.843613
939.801758	-95.105560
938.662109	-10.166459
937.521484	-77.251419
936.381836	149.934143
935.241211	68.376900
934.100586	122.067993
932.958984	93.989304
931.818359	139.217819
930.676758	37.560379
929.535156	94.583183
928.392578	83.589066
927.250977	144.735794
926.108398	184.937943
924.965820	198.761093
923.822266	194.400330
922.678711	196.494156
921.536133	1.723860
920.391602	70.833214
919.248047	-77.626328
918.103516	72.094612
916.959961	8.674864
915.814453	16.657476
914.669922	42.015839
913.524414	242.975220
912.378906	74.326302
911.233398	16.930550
910.087891	-12.731380
908.941406	-20.700779
907.794922	-86.020134
906.648438	72.607597
905.501953	29.422367
904.354492	-18.778564
903.207031	16.276613
