#Wave		#Intensity
1799.013672	501.151581
1798.050781	1014.585144
1797.087891	-405.689819
1796.124023	-240.043579
1795.161133	-144.503265
1794.197266	-189.374451
1793.233398	-317.345917
1792.268555	545.046936
1791.304688	74.542336
1790.339844	557.872620
1789.375977	618.642944
1788.411133	-631.906982
1787.445313	265.363708
1786.480469	97.880051
1785.514648	178.842117
1784.549805	353.080780
1783.583984	550.358398
1782.617188	240.135391
1781.651367	173.374832
1780.684570	-496.278412
1779.718750	-9.400862
1778.751953	-303.808716
1777.784180	-231.128113
1776.817383	79.485474
1775.849609	723.223694
1774.882813	276.500671
1773.915039	-53.921570
1772.947266	421.662872
1771.978516	60.278648
1771.010742	89.080788
1770.041992	112.597198
1769.073242	641.985962
1768.104492	1153.174072
1767.134766	730.201660
1766.166016	341.159576
1765.196289	-1.392511
1764.226563	-207.078979
1763.256836	-80.098473
1762.287109	150.022125
1761.316406	11.526368
1760.345703	143.679428
1759.375000	414.954071
1758.404297	137.744843
1757.433594	-67.163185
1756.461914	273.661407
1755.491211	-62.211151
1754.519531	260.718903
1753.546875	493.439880
1752.575195	355.989410
1751.603516	349.876892
1750.630859	-363.278198
1749.658203	-145.510666
1748.685547	98.026215
1747.712891	220.835266
1746.739258	-77.713524
1745.765625	1070.015747
1744.791992	3.931913
1743.818359	-50.040611
1742.844727	252.975601
1741.870117	-260.226898
1740.896484	112.289650
1739.921875	671.951782
1738.947266	513.409058
1737.971680	657.548218
1736.997070	745.523804
1736.021484	138.857620
1735.045898	583.338562
1734.070313	-209.750351
1733.094727	229.858261
1732.118164	-332.119507
1731.141602	-348.255371
1730.165039	432.014709
1729.188477	160.129715
1728.211914	-418.549561
1727.234375	-183.306046
1726.257813	-252.241470
1725.280273	-328.766602
1724.302734	-292.564758
1723.324219	-256.324219
1722.346680	291.460327
1721.368164	-144.823135
1720.389648	788.797180
1719.411133	225.259644
1718.432617	-580.481628
1717.453125	233.105103
1716.473633	336.818451
1715.495117	-301.950287
1714.514648	-187.684372
1713.535156	-50.164661
1712.555664	426.797119
1711.575195	635.827759
1710.594727	-399.400818
1709.614258	-189.872482
1708.632813	-204.662811
1707.652344	231.974960
1706.670898	87.576859
1705.689453	205.844421
1704.708008	846.387451
1703.726563	-415.278046
1702.744141	-517.976196
1701.761719	-62.991020
1700.779297	10.302793
1699.796875	-442.891357
1698.814453	480.520508
1697.831055	767.809326
1696.848633	406.918610
1695.865234	-146.969238
1694.880859	318.709290
1693.897461	-132.838364
1692.914063	249.377884
1691.929688	352.083588
1690.945313	-281.539764
1689.960938	946.554688
1688.975586	-407.640961
1687.991211	282.327179
1687.005859	157.490158
1686.020508	-162.425171
1685.035156	-45.700058
1684.048828	601.143188
1683.063477	1174.540039
1682.077148	178.524261
1681.090820	189.399384
1680.104492	228.352844
1679.117188	280.051178
1678.130859	780.442688
1677.143555	-1135.389282
1676.156250	-325.689606
1675.168945	187.713654
1674.180664	156.816406
1673.193359	-98.935822
1672.205078	-673.285095
1671.216797	217.428711
1670.228516	-374.013336
1669.239258	-163.582626
1668.250000	82.395706
1667.261719	760.814087
1666.272461	-466.316132
1665.282227	-149.150528
1664.292969	403.141968
1663.302734	-148.316269
1662.312500	371.257263
1661.322266	598.003052
1660.332031	-61.047718
1659.340820	188.730026
1658.350586	-0.257811
1657.359375	206.973831
1656.368164	78.908928
1655.376953	810.937988
1654.384766	-380.703033
1653.392578	540.468994
1652.400391	1108.719604
1651.408203	213.173691
1650.416016	340.893677
1649.422852	798.569946
1648.430664	385.212341
1647.437500	593.920837
1646.444336	1238.192261
1645.450195	593.921387
1644.457031	752.818909
1643.462891	101.799561
1642.468750	494.937256
1641.474609	785.060120
1640.480469	695.683655
1639.485352	772.345032
1638.490234	238.585754
1637.495117	1187.515259
1636.500000	827.649048
1635.504883	987.987244
1634.508789	201.802704
1633.512695	1095.541870
1632.516602	372.845398
1631.520508	596.666504
1630.524414	747.864563
1629.527344	766.182678
1628.530273	1002.894043
1627.533203	1096.811401
1626.536133	1093.168945
1625.538086	2026.961182
1624.541016	1093.965820
1623.542969	998.202576
1622.544922	2009.786987
1621.546875	1638.859985
1620.547852	1728.901245
1619.548828	1351.025635
1618.549805	307.811310
1617.550781	2007.649170
1616.551758	1743.211304
1615.552734	2472.091797
1614.552734	1935.443970
1613.552734	799.209167
1612.552734	828.512573
1611.551758	1127.836914
1610.551758	1252.467896
1609.550781	1534.573975
1608.549805	1032.532471
1607.548828	1504.812378
1606.547852	1420.382935
1605.545898	1640.650269
1604.543945	1626.474854
1603.541992	1562.638550
1602.540039	1172.266602
1601.538086	1996.937378
1600.535156	1579.574463
1599.532227	1466.787109
1598.529297	1247.106689
1597.526367	1855.127686
1596.522461	1202.290039
1595.519531	1641.168335
1594.515625	1820.986328
1593.511719	1901.367432
1592.507813	1660.812012
1591.502930	1562.355591
1590.498047	1307.417236
1589.493164	1540.497681
1588.488281	1166.753662
1587.483398	1596.732422
1586.477539	1688.502319
1585.472656	1206.319458
1584.466797	2103.960693
1583.460938	1744.061890
1582.454102	1960.864502
1581.448242	1166.919189
1580.441406	773.317688
1579.434570	1321.194824
1578.427734	2025.504517
1577.419922	1210.677002
1576.413086	667.025574
1575.405273	1098.785767
1574.397461	1872.965942
1573.389648	1208.660645
1572.380859	1323.364014
1571.372070	1036.677734
1570.364258	1771.623413
1569.354492	811.372620
1568.345703	523.270996
1567.336914	914.266724
1566.327148	710.903015
1565.317383	624.263794
1564.307617	703.787354
1563.297852	842.943054
1562.287109	435.369263
1561.276367	1042.554810
1560.265625	460.016205
1559.254883	454.207306
1558.244141	943.160156
1557.232422	448.248962
1556.220703	191.086105
1555.208984	502.625580
1554.197266	755.024475
1553.185547	-291.622711
1552.172852	-169.565125
1551.160156	-476.895020
1550.147461	252.950958
1549.134766	491.645538
1548.121094	394.878296
1547.108398	821.522949
1546.094727	229.520660
1545.080078	-48.845474
1544.066406	829.577576
1543.052734	1175.511353
1542.038086	609.647339
1541.023438	51.687099
1540.008789	531.381470
1538.993164	176.141830
1537.978516	-23.429611
1536.962891	38.239223
1535.947266	117.441948
1534.931641	610.335693
1533.915039	45.239784
1532.899414	782.096802
1531.882813	107.138535
1530.866211	251.578720
1529.848633	219.191116
1528.832031	988.493835
1527.814453	180.018188
1526.796875	556.445374
1525.779297	-157.645630
1524.761719	-608.363159
1523.743164	161.724716
1522.724609	1115.938599
1521.706055	-234.689484
1520.687500	108.810242
1519.668945	-94.655083
1518.649414	-776.120422
1517.629883	259.748535
1516.610352	265.687164
1515.590820	225.368240
1514.570313	-295.085602
1513.550781	-741.416626
1512.530273	260.635620
1511.509766	-246.284149
1510.488281	-204.176804
1509.467773	203.165634
1508.446289	32.850178
1507.424805	435.660797
1506.403320	723.629578
1505.381836	720.679321
1504.359375	316.842529
1503.336914	114.042267
1502.314453	371.326324
1501.291992	836.617432
1500.268555	233.965088
1499.246094	514.085693
1498.222656	-434.484650
1497.199219	327.440552
1496.174805	0.177922
1495.151367	269.206482
1494.126953	-296.434723
1493.102539	-1012.810730
1492.078125	213.735611
1491.053711	-30.919956
1490.028320	7.728900
1489.002930	222.303207
1487.977539	856.475586
1486.952148	442.606262
1485.926758	-999.179077
1484.900391	318.096527
1483.874023	-145.572815
1482.847656	-16.842651
1481.821289	-394.305969
1480.793945	589.609375
1479.766602	18.114647
1478.739258	-241.289398
1477.711914	183.460403
1476.684570	-167.572754
1475.656250	-2.564847
1474.627930	240.537201
1473.599609	-274.578430
1472.571289	-910.629883
1471.542969	130.695953
1470.513672	200.068802
1469.484375	-80.007156
1468.455078	281.562439
1467.425781	-446.862488
1466.395508	73.108040
1465.366211	304.477478
1464.335938	-281.693237
1463.304688	-248.668076
1462.274414	-152.133392
1461.243164	92.614647
1460.212891	-190.877594
1459.180664	127.206154
1458.149414	300.175568
1457.118164	-633.920898
1456.085938	487.091705
1455.053711	871.711914
1454.021484	677.768372
1452.989258	794.198792
1451.956055	-514.867004
1450.922852	-49.010303
1449.889648	332.347351
1448.856445	363.159454
1447.823242	-145.026840
1446.789063	-372.158051
1445.754883	56.385666
1444.720703	11.385803
1443.686523	-402.969879
1442.651367	-435.063873
1441.617188	212.135574
1440.582031	-232.277054
1439.546875	-159.356308
1438.510742	-530.358154
1437.475586	-109.051033
1436.439453	-126.774750
1435.403320	-551.851196
1434.367188	0.594753
1433.330078	-105.237816
1432.292969	98.015472
1431.256836	-272.142029
1430.218750	175.232956
1429.181641	569.869080
1428.144531	-51.986973
1427.106445	-155.352493
1426.068359	302.868683
1425.030273	520.520325
1423.991211	13.836170
1422.953125	318.895660
1421.914063	104.416870
1420.875000	-484.881104
1419.834961	-513.137878
1418.795898	79.519470
1417.755859	-717.437805
1416.715820	171.457733
1415.675781	793.612061
1414.635742	-609.740662
1413.594727	-525.065918
1412.553711	364.617615
1411.512695	-114.471581
1410.471680	713.150513
1409.429688	-420.370636
1408.388672	38.173405
1407.346680	578.480469
1406.304688	-126.095596
1405.261719	-175.235977
1404.219727	-39.282436
1403.176758	113.762939
1402.133789	-56.435280
1401.090820	869.028625
1400.046875	-19.305750
1399.003906	568.809387
1397.959961	275.657074
1396.916016	327.852966
1395.871094	806.531799
1394.827148	-287.124329
1393.782227	752.264465
1392.737305	255.577774
1391.692383	424.502350
1390.646484	335.424866
1389.601563	332.898315
1388.555664	376.150208
1387.509766	290.729889
1386.463867	743.386536
1385.416992	888.024292
1384.370117	658.003662
1383.323242	583.683228
1382.276367	801.077698
1381.229492	450.639252
1380.181641	336.976959
1379.133789	591.246277
1378.085938	254.133667
1377.038086	850.169373
1375.989258	482.901459
1374.941406	1203.402954
1373.892578	603.380676
1372.843750	247.081345
1371.793945	987.351318
1370.745117	689.072998
1369.695313	929.549927
1368.645508	586.902161
1367.594727	1101.836914
1366.544922	591.061462
1365.494141	421.148041
1364.443359	932.183838
1363.392578	477.589417
1362.341797	1067.644653
1361.290039	899.277710
1360.238281	809.824097
1359.186523	775.423096
1358.134766	415.870148
1357.083008	-35.836197
1356.030273	-448.984924
1354.977539	444.601410
1353.924805	-74.594337
1352.871094	83.342964
1351.818359	108.688194
1350.764648	319.460968
1349.710938	760.649292
1348.657227	-31.420374
1347.602539	1162.121948
1346.547852	755.106934
1345.493164	149.501526
1344.438477	402.444763
1343.383789	354.716095
1342.328125	371.312164
1341.272461	940.124146
1340.216797	658.915955
1339.161133	655.185730
1338.105469	-171.943344
1337.048828	670.042542
1335.992188	172.829681
1334.935547	57.009926
1333.877930	1034.269897
1332.821289	159.965317
1331.763672	-16.215900
1330.706055	-371.651733
1329.648438	-417.000397
1328.589844	438.160553
1327.531250	-235.032242
1326.472656	266.137909
1325.414063	852.450134
1324.355469	95.589920
1323.295898	500.590576
1322.236328	952.946350
1321.176758	-486.704224
1320.117188	1011.261658
1319.056641	181.253464
1317.997070	-150.569717
1316.936523	237.019867
1315.875977	238.248856
1314.814453	143.168518
1313.752930	698.661133
1312.692383	236.701492
1311.630859	248.567123
1310.568359	147.709656
1309.506836	612.142639
1308.444336	798.973328
1307.381836	931.910278
1306.319336	970.966675
1305.255859	986.789978
1304.193359	309.203217
1303.129883	544.363342
1302.066406	173.289902
1301.001953	-277.259338
1299.938477	555.520813
1298.874023	411.008148
1297.809570	1105.283569
1296.745117	-8.499423
1295.679688	723.668396
1294.614258	232.960724
1293.548828	411.499908
1292.483398	970.314575
1291.417969	290.652039
1290.351563	197.819427
1289.286133	871.991577
1288.218750	528.752136
1287.152344	570.277649
1286.085938	199.625412
1285.018555	1096.791138
1283.951172	937.477173
1282.883789	71.243263
1281.815430	-454.898651
1280.748047	791.409912
1279.679688	1318.945923
1278.611328	-60.464588
1277.541992	135.300690
1276.473633	476.223328
1275.404297	-298.183655
1274.334961	417.186218
1273.265625	496.704987
1272.195313	260.933319
1271.125977	595.538208
1270.055664	-165.324722
1268.985352	298.106140
1267.914063	-27.685970
1266.843750	-79.988831
1265.772461	-55.051510
1264.701172	597.792969
1263.629883	-44.302162
1262.557617	331.084717
1261.485352	659.838745
1260.413086	263.519379
1259.340820	569.217285
1258.268555	544.007446
1257.195313	-338.500092
1256.122070	531.422546
1255.048828	-278.165253
1253.975586	745.420898
1252.901367	222.807159
1251.828125	40.419460
1250.753906	428.450897
1249.678711	-109.570045
1248.604492	113.453560
1247.529297	-303.049988
1246.454102	310.895721
1245.378906	-105.196831
1244.303711	280.934753
1243.227539	176.714661
1242.151367	242.259415
1241.075195	303.268921
1239.999023	185.552399
1238.921875	808.722046
1237.845703	-330.252930
1236.768555	662.026978
1235.690430	523.933838
1234.613281	288.561157
1233.535156	517.309082
1232.457031	-220.988190
1231.378906	828.744080
1230.300781	-226.684830
1229.221680	-366.115051
1228.143555	1003.030090
1227.063477	-290.106659
1225.984375	576.028503
1224.905273	253.954849
1223.825195	432.176453
1222.745117	547.901550
1221.665039	184.595581
1220.583984	346.747131
1219.503906	-16.240318
1218.422852	-34.386131
1217.341797	-50.154346
1216.259766	-1039.134277
1215.178711	364.577179
1214.096680	164.023468
1213.014648	178.474747
1211.932617	162.927643
1210.849609	-760.175598
1209.766602	-242.080719
1208.683594	-485.947266
1207.600586	765.862061
1206.517578	-488.749908
1205.433594	-1682.825195
1204.349609	-191.578262
1203.265625	-153.762604
1202.181641	335.946594
1201.096680	-656.695740
1200.011719	333.033234
1198.926758	656.458252
1197.841797	-222.752136
1196.755859	10.844507
1195.670898	78.525208
1194.584961	159.990662
1193.499023	-541.177002
1192.412109	-236.425919
1191.325195	-150.392746
1190.238281	172.512985
1189.151367	51.381683
1188.064453	-334.133698
1186.976563	347.143585
1185.889648	-203.837372
1184.800781	-3.211760
1183.712891	178.899048
1182.625000	344.812408
1181.536133	-561.826416
1180.447266	-147.950623
1179.358398	164.686569
1178.268555	231.558426
1177.178711	-50.408695
1176.089844	862.852356
1174.999023	-166.966690
1173.909180	-533.751526
1172.818359	883.212952
1171.727539	385.572144
1170.636719	-254.036575
1169.545898	488.118011
1168.454102	41.008633
1167.363281	-149.507385
1166.271484	-234.700119
1165.178711	-345.151093
1164.086914	-208.455658
1162.994141	51.631287
1161.901367	-17.947258
1160.808594	-675.444458
1159.715820	-472.925842
1158.622070	461.033661
1157.528320	109.799370
1156.434570	-86.006790
1155.339844	-124.178703
1154.246094	662.205750
1153.151367	945.655640
1152.056641	329.146149
1150.961914	96.299263
1149.866211	-214.195053
1148.770508	296.841949
1147.674805	134.438522
1146.579102	22.138542
1145.483398	-334.310944
1144.386719	-599.548706
1143.290039	-14.520278
1142.193359	535.912048
1141.095703	-222.047195
1139.999023	-139.191055
1138.901367	-400.498138
1137.803711	-28.756975
1136.705078	-333.591644
1135.607422	1155.299683
1134.508789	44.312424
1133.410156	794.877319
1132.310547	52.604065
1131.211914	136.045975
1130.112305	287.487640
1129.012695	597.798157
1127.913086	37.224796
1126.812500	26.610847
1125.712891	70.339485
1124.612305	-581.275085
1123.510742	132.107681
1122.410156	506.637665
1121.308594	320.065582
1120.207031	196.887024
1119.105469	225.583755
1118.003906	-281.393646
1116.901367	-128.328461
1115.798828	756.932068
1114.696289	-83.833366
1113.593750	263.325867
1112.490234	-17.686733
1111.387695	292.564148
1110.284180	-95.315277
1109.179688	438.562561
1108.076172	-78.772003
1106.971680	298.145447
1105.867188	199.297775
1104.762695	170.385727
1103.657227	263.389374
1102.552734	-707.080505
1101.447266	514.079041
1100.341797	56.680126
1099.235352	695.623901
1098.129883	-783.758240
1097.023438	344.884888
1095.916992	650.413330
1094.809570	-130.928894
1093.703125	56.566608
1092.595703	-244.000854
1091.488281	-212.895172
1090.379883	998.236084
1089.272461	292.884735
1088.164063	-98.898750
1087.055664	199.341568
1085.947266	-93.646301
1084.837891	460.863922
1083.728516	106.469658
1082.619141	567.700195
1081.509766	-647.868225
1080.400391	164.090668
1079.290039	344.801880
1078.179688	-382.307587
1077.069336	1195.776001
1075.958008	378.120880
1074.847656	629.350769
1073.736328	-318.990356
1072.625000	158.791580
1071.512695	282.966766
1070.401367	-544.276184
1069.289063	352.589050
1068.176758	343.054474
1067.063477	535.389282
1065.951172	489.190765
1064.837891	611.092285
1063.724609	667.493530
1062.611328	5.111674
1061.497070	830.792725
1060.382813	895.030884
1059.268555	817.543579
1058.154297	1062.735596
1057.040039	-504.581909
1055.924805	515.873169
1054.809570	-98.668922
1053.694336	763.649902
1052.578125	-37.404739
1051.461914	917.898438
1050.345703	889.167542
1049.229492	-161.083023
1048.113281	1303.020630
1046.996094	447.133392
1045.878906	-28.324411
1044.761719	95.693016
1043.644531	713.653381
1042.526367	-485.086517
1041.408203	787.145142
1040.290039	925.019104
1039.171875	43.237656
1038.052734	1217.312744
1036.933594	364.120483
1035.814453	53.691280
1034.695313	-118.538208
1033.575195	293.895935
1032.455078	404.402527
1031.334961	210.965149
1030.214844	255.958054
1029.094727	1152.739868
1027.973633	748.413696
1026.852539	783.171387
1025.731445	547.746521
1024.609375	514.850830
1023.487305	0.223864
1022.365234	837.833923
1021.243164	1242.539795
1020.121094	448.512756
1018.998047	861.228638
1017.875000	592.163269
1016.751953	44.612995
1015.627930	540.490173
1014.503906	366.115479
1013.380859	1125.623291
1012.255859	965.936951
1011.131836	103.366959
1010.006836	532.220459
1008.881836	687.132385
1007.756836	1010.430603
1006.631836	562.364990
1005.505859	649.298157
1004.379883	540.397766
1003.253906	286.819916
1002.127930	643.345764
1001.000977	684.149292
999.874023	336.290100
998.747070	788.924500
997.620117	1296.396118
996.492188	437.409210
995.364258	1715.321533
994.236328	1106.226929
993.108398	572.328674
991.979492	882.267029
990.851563	299.105347
989.721680	738.763245
988.592773	1151.290283
987.463867	686.701416
986.333984	863.635559
985.204102	-196.702530
984.073242	539.137878
982.943359	1119.490479
981.812500	713.006042
980.681641	635.656494
979.550781	551.301514
978.418945	1317.281006
977.288086	224.588318
976.156250	227.464752
975.023438	609.737976
973.891602	421.840851
972.758789	785.434753
971.625977	424.588196
970.493164	423.145477
969.359375	1257.319092
968.226563	780.701294
967.092773	817.622437
965.958008	823.207153
964.824219	162.799988
963.689453	491.651001
962.554688	881.643982
961.419922	991.326599
960.285156	-154.706512
959.149414	35.769917
958.013672	331.422302
956.877930	1143.735962
955.741211	335.810242
954.605469	964.401917
953.468750	274.818085
952.331055	926.449402
951.194336	1034.429565
950.056641	-277.998810
948.918945	-370.635193
947.781250	-617.416077
946.643555	-763.449768
945.504883	1024.969971
944.366211	761.451172
943.227539	-121.411400
942.088867	330.133545
940.949219	-265.630890
939.809570	-236.282852
938.669922	104.116356
937.529297	457.083466
936.389648	465.354187
935.249023	-223.852081
934.108398	0.700552
