#Wave		#Intensity
1799.006836	46.440819
1798.043945	-50.153339
1797.081055	-50.646393
1796.117188	-53.278290
1795.154297	161.241089
1794.190430	20.740513
1793.226563	72.710709
1792.262695	-53.126312
1791.297852	-27.419092
1790.333984	154.967697
1789.369141	22.240776
1788.404297	-54.867699
1787.439453	112.721344
1786.473633	-48.195129
1785.508789	65.326843
1784.542969	-9.044027
1783.577148	38.147861
1782.611328	-81.075607
1781.644531	20.190750
1780.678711	-70.756927
1779.711914	44.467609
1778.745117	39.940834
1777.778320	54.055897
1776.810547	58.350746
1775.843750	66.442276
1774.875977	26.614647
1773.908203	77.125931
1772.940430	33.901951
1771.971680	-24.259556
1771.003906	105.361664
1770.035156	28.330168
1769.066406	53.190056
1768.097656	28.940136
1767.128906	-7.626434
1766.159180	162.065689
1765.189453	-13.275970
1764.219727	-28.767334
1763.250000	73.612114
1762.280273	97.286888
1761.309570	30.691452
1760.338867	107.039948
1759.369141	-70.370331
1758.397461	205.410019
1757.426758	-84.709541
1756.455078	203.092377
1755.484375	40.386620
1754.512695	-112.026924
1753.541016	152.325653
1752.568359	12.064597
1751.596680	28.061176
1750.624023	151.974716
1749.651367	29.683128
1748.678711	27.553955
1747.706055	81.278893
1746.732422	122.088394
1745.758789	52.412109
1744.785156	118.836639
1743.811523	28.601391
1742.837891	-28.251781
1741.863281	59.873547
1740.889648	-6.625209
1739.915039	-4.514089
1738.940430	-15.244945
1737.964844	198.367599
1736.990234	3.620062
1736.014648	130.607056
1735.039063	40.978928
1734.063477	108.314598
1733.087891	22.551105
1732.111328	2.103613
1731.135742	112.276520
1730.159180	48.284386
1729.181641	92.439392
1728.205078	7.997246
1727.228516	61.755058
1726.250977	-64.880684
1725.273438	58.543293
1724.295898	68.127838
1723.317383	42.535255
1722.339844	142.865463
1721.361328	14.414005
1720.382813	-23.914383
1719.404297	112.127029
1718.425781	-20.693571
1717.446289	13.143982
1716.467773	99.973167
1715.488281	-26.379421
1714.508789	99.977066
1713.528320	81.475128
1712.548828	87.885773
1711.568359	127.440926
1710.587891	114.081085
1709.607422	69.510040
1708.625977	37.694973
1707.645508	-62.879581
1706.664063	56.338776
1705.682617	-60.109589
1704.701172	-9.673803
1703.719727	66.861031
1702.737305	42.162350
1701.754883	-43.596333
1700.773438	-12.853450
1699.790039	53.474884
1698.807617	-22.001392
1697.824219	82.492607
1696.841797	-4.995393
1695.858398	44.200211
1694.875000	-23.523754
1693.890625	-30.865429
1692.907227	81.255791
1691.922852	-23.221830
1690.938477	99.671616
1689.954102	105.100517
1688.968750	163.843872
1687.984375	-9.003923
1686.999023	-28.880821
1686.013672	-89.954346
1685.028320	-128.148056
1684.041992	97.440712
1683.056641	-85.256676
1682.070313	55.991089
1681.083984	54.634399
1680.097656	-117.115570
1679.110352	51.350002
1678.124023	17.778986
1677.136719	52.608067
1676.149414	53.267891
1675.162109	-143.508453
1674.173828	-42.163273
1673.186523	15.537228
1672.198242	37.169701
1671.209961	106.882820
1670.221680	45.085915
1669.232422	18.091702
1668.243164	-67.641708
1667.254883	19.845123
1666.265625	85.827484
1665.275391	-15.589907
1664.286133	-34.821953
1663.295898	111.383896
1662.305664	64.399101
1661.315430	-5.257745
1660.325195	39.354374
1659.334961	90.917152
1658.343750	98.948730
1657.352539	-65.779770
1656.361328	-33.070061
1655.370117	27.392359
1654.377930	31.751253
1653.385742	-14.900178
1652.393555	5.275513
1651.401367	32.402359
1650.409180	35.619556
1649.416992	-57.462528
1648.423828	6.871863
1647.430664	29.045259
1646.437500	38.027401
1645.443359	107.410118
1644.450195	69.891632
1643.456055	140.559464
1642.461914	-15.105014
1641.467773	103.385521
1640.473633	-28.894712
1639.478516	45.611164
1638.483398	-33.163460
1637.488281	81.572433
1636.493164	184.362259
1635.498047	-12.958534
1634.501953	37.754040
1633.505859	112.950745
1632.509766	30.033895
1631.513672	35.632378
1630.517578	4.883361
1629.520508	67.591682
1628.523438	188.611221
1627.526367	175.475128
1626.529297	-93.312202
1625.531250	183.754379
1624.534180	209.559006
1623.536133	116.994400
1622.538086	15.106112
1621.540039	217.550842
1620.541016	93.193336
1619.541992	-81.773064
1618.542969	71.215599
1617.543945	114.076752
1616.544922	217.617981
1615.545898	147.316757
1614.545898	169.581055
1613.545898	56.858379
1612.545898	122.313744
1611.544922	176.509003
1610.544922	130.160202
1609.543945	117.568375
1608.542969	75.041718
1607.541992	80.007919
1606.541016	173.632965
1605.539063	134.315353
1604.537109	157.435883
1603.535156	212.390030
1602.533203	191.266617
1601.531250	145.864914
1600.528320	182.784348
1599.525391	235.301971
1598.522461	49.784443
1597.519531	212.021790
1596.515625	180.486145
1595.512695	205.681915
1594.508789	186.674026
1593.504883	61.876053
1592.500000	133.819336
1591.496094	179.024155
1590.491211	143.345245
1589.486328	160.583267
1588.481445	16.775784
1587.476563	108.705482
1586.470703	-41.827484
1585.465820	175.684982
1584.459961	159.481888
1583.454102	170.030136
1582.447266	61.329750
1581.441406	197.399765
1580.434570	74.519516
1579.427734	33.040073
1578.420898	89.667473
1577.413086	179.175354
1576.406250	101.809921
1575.398438	120.631180
1574.390625	179.162857
1573.381836	48.585487
1572.374023	71.837830
1571.365234	116.787354
1570.356445	101.645142
1569.347656	71.053741
1568.338867	167.478516
1567.330078	172.246124
1566.320313	82.919220
1565.310547	171.313171
1564.300781	34.432400
1563.290039	158.115524
1562.280273	-9.575370
1561.269531	52.280167
1560.258789	221.739532
1559.248047	14.030760
1558.237305	99.427811
1557.225586	37.722687
1556.213867	163.908157
1555.202148	134.401764
1554.190430	52.440315
1553.177734	-6.005304
1552.166016	-66.849854
1551.153320	-79.507050
1550.140625	130.653366
1549.127930	83.472740
1548.114258	83.827415
1547.100586	70.029182
1546.086914	125.331009
1545.073242	93.100624
1544.059570	66.462555
1543.044922	-1.435641
1542.031250	-145.657440
1541.016602	137.697708
1540.001953	-152.403885
1538.986328	60.077572
1537.971680	74.291199
1536.956055	38.662750
1535.940430	-68.917282
1534.923828	102.886467
1533.908203	13.242329
1532.891602	38.656952
1531.875977	94.238464
1530.858398	18.246132
1529.841797	-52.750099
1528.825195	47.146782
1527.807617	78.211372
1526.790039	38.045742
1525.772461	36.619659
1524.753906	192.396820
1523.736328	101.996956
1522.717773	-16.578369
1521.699219	44.106689
1520.680664	-55.321815
1519.662109	-57.762749
1518.642578	-114.760971
1517.623047	62.511299
1516.603516	109.791435
1515.583984	117.250404
1514.563477	-5.175041
1513.543945	10.950908
1512.523438	229.828400
1511.502930	46.935379
1510.481445	119.445572
1509.460938	-115.921356
1508.439453	186.774811
1507.417969	188.954239
1506.396484	-16.825878
1505.374023	-64.701660
1504.352539	70.942650
1503.330078	146.639465
1502.307617	-28.271820
1501.285156	98.821655
1500.261719	13.256635
1499.239258	-73.443840
1498.215820	-17.781082
1497.192383	84.303787
1496.167969	75.868896
1495.144531	70.539963
1494.120117	-54.982830
1493.095703	123.428093
1492.071289	20.589706
1491.046875	-77.290405
1490.021484	-72.666092
1488.996094	84.402557
1487.970703	65.296478
1486.945313	-10.437386
1485.918945	2.837613
1484.893555	28.340120
1483.867188	2.700837
1482.840820	1.465859
1481.813477	134.185593
1480.787109	-92.196579
1479.759766	38.130569
1478.732422	-35.976494
1477.705078	35.970097
1476.677734	37.381039
1475.649414	-45.696426
1474.621094	150.322510
1473.592773	113.524338
1472.564453	59.159107
1471.536133	11.537930
1470.506836	16.199453
1469.477539	-110.880127
1468.448242	-36.294998
1467.418945	12.805485
1466.388672	31.568552
1465.358398	106.793945
1464.328125	85.570587
1463.297852	77.739342
1462.267578	69.951637
1461.236328	-20.259361
1460.205078	-127.365601
1459.173828	4.996719
1458.142578	127.650406
1457.111328	76.433395
1456.079102	28.295088
1455.046875	22.604612
1454.014648	30.276060
1452.981445	78.528999
1451.949219	54.798973
1450.916016	-2.774220
1449.882813	131.477142
1448.849609	66.736214
1447.816406	24.435608
1446.782227	76.493401
1445.748047	131.592758
1444.713867	8.441200
1443.679688	-110.993958
1442.644531	129.667923
1441.609375	-24.094769
1440.574219	-75.105278
1439.539063	46.600288
1438.503906	28.271441
1437.467773	124.031227
1436.432617	56.305519
1435.396484	-1.107331
1434.359375	-47.006508
1433.323242	41.019440
1432.286133	39.822815
1431.249023	41.681835
1430.211914	50.812809
1429.174805	128.661514
1428.136719	-18.759451
1427.099609	-42.014797
1426.061523	-5.622278
1425.022461	121.080826
1423.984375	-45.909924
1422.945313	-71.400085
1421.906250	28.895414
1420.867188	25.739750
1419.828125	26.836992
1418.789063	123.569923
1417.749023	65.212784
1416.708984	-48.968132
1415.668945	23.202454
1414.627930	-67.421028
1413.587891	12.014946
1412.546875	6.783814
1411.505859	-2.605690
1410.464844	-27.555468
1409.422852	-40.459885
1408.380859	-46.116989
1407.339844	-10.929478
1406.296875	116.625473
1405.254883	24.721680
1404.212891	98.955582
1403.169922	41.331001
1402.126953	2.948546
1401.083008	30.516722
1400.040039	196.494308
1398.996094	140.253021
1397.952148	106.828812
1396.908203	-16.334066
1395.864258	29.973288
1394.820313	46.383587
1393.775391	127.431305
1392.730469	47.588699
1391.685547	211.212585
1390.639648	80.040710
1389.593750	94.819580
1388.548828	-80.410019
1387.502930	187.231888
1386.456055	154.301453
1385.410156	92.168793
1384.363281	139.372818
1383.316406	67.788193
1382.269531	53.577377
1381.221680	76.406204
1380.174805	-44.522663
1379.126953	42.227554
1378.079102	61.585991
1377.031250	55.932377
1375.982422	139.144150
1374.933594	103.745506
1373.884766	68.402802
1372.835938	92.694000
1371.787109	75.316696
1370.737305	47.854080
1369.687500	142.507370
1368.637695	194.892136
1367.587891	84.212296
1366.538086	182.486221
1365.487305	35.630798
1364.436523	124.427094
1363.385742	213.820251
1362.333984	227.694534
1361.283203	56.136818
1360.231445	4.142441
1359.179688	60.355057
1358.127930	120.739792
1357.075195	24.321236
1356.022461	59.221439
1354.969727	43.677002
1353.916992	21.051968
1352.864258	85.715256
1351.810547	23.995832
1350.756836	18.695223
1349.703125	14.618855
1348.649414	95.378807
1347.595703	-52.114025
1346.541016	20.983658
1345.486328	5.786641
1344.431641	113.870377
1343.375977	125.972778
1342.321289	74.147079
1341.265625	101.124771
1340.209961	119.245071
1339.154297	41.505257
1338.097656	9.982306
1337.041016	184.400543
1335.985352	66.572556
1334.927734	-6.242234
1333.871094	98.990631
1332.813477	-23.392807
1331.756836	88.365997
1330.698242	7.458507
1329.640625	84.364555
1328.583008	112.834625
1327.524414	-40.571617
1326.465820	92.474304
1325.407227	132.227936
1324.347656	-82.971138
1323.289063	195.247833
1322.229492	91.093597
1321.169922	136.826584
1320.110352	101.779945
1319.049805	-131.326233
1317.989258	84.857719
1316.928711	-0.759354
1315.868164	132.285110
1314.807617	60.299381
1313.746094	90.844955
1312.684570	58.398296
1311.623047	50.129963
1310.561523	76.618706
1309.499023	173.146362
1308.436523	194.938278
1307.374023	84.393021
1306.311523	121.536118
1305.249023	68.137238
1304.185547	-15.202341
1303.122070	118.984764
1302.058594	78.025833
1300.995117	5.382898
1299.930664	116.638771
1298.866211	150.939926
1297.801758	212.258148
1296.737305	118.598930
1295.672852	144.141098
1294.607422	-12.212624
1293.541992	-12.430632
1292.476563	96.468620
1291.410156	106.819084
1290.344727	145.333038
1289.278320	110.574326
1288.211914	41.271175
1287.145508	75.725441
1286.078125	159.385910
1285.010742	104.807426
1283.943359	101.799133
1282.875977	68.951462
1281.808594	132.712219
1280.740234	2.756875
1279.671875	31.427240
1278.603516	171.828857
1277.535156	120.359741
1276.465820	73.015709
1275.397461	31.556330
1274.328125	53.830086
1273.257813	-3.368466
1272.188477	57.489670
1271.118164	144.615372
1270.047852	89.222870
1268.977539	49.630577
1267.907227	102.297523
1266.835938	25.384182
1265.764648	139.318573
1264.693359	145.290192
1263.622070	168.183365
1262.550781	91.359932
1261.478516	11.072236
1260.406250	186.720383
1259.333984	39.444061
1258.260742	-36.102535
1257.188477	53.253254
1256.115234	-42.052750
1255.041992	191.100693
1253.967773	160.433762
1252.894531	200.799652
1251.820313	40.382332
1250.746094	-52.474846
1249.671875	79.825806
1248.596680	21.314514
1247.522461	112.849327
1246.447266	84.008278
1245.372070	71.455025
1244.295898	57.160225
1243.220703	70.763634
1242.144531	158.124557
1241.068359	264.612671
1239.991211	131.842224
1238.915039	62.985126
1237.837891	49.283550
1236.760742	70.400604
1235.683594	65.981308
1234.605469	78.376717
1233.528320	160.933060
1232.450195	112.420822
1231.372070	21.030926
1230.292969	41.517265
1229.214844	38.238262
1228.135742	130.531769
1227.056641	-61.007462
1225.977539	-7.540575
1224.897461	36.628674
1223.817383	33.889473
1222.737305	100.005478
1221.657227	24.917616
1220.577148	114.127327
1219.496094	65.646271
1218.415039	128.766968
1217.333984	-6.429039
1216.252930	-43.328506
1215.170898	-8.000353
1214.088867	74.674126
1213.006836	-26.373444
1211.924805	82.807610
1210.841797	106.475960
1209.759766	-67.288605
1208.676758	26.779778
1207.593750	14.627008
1206.509766	-7.348638
1205.425781	114.279716
1204.342773	-62.849087
1203.257813	62.736065
1202.173828	60.873615
1201.088867	37.666641
1200.004883	146.969574
1198.919922	-117.640411
1197.833984	-18.190723
1196.749023	37.442188
1195.663086	100.509239
1194.577148	66.260666
1193.491211	-71.573059
1192.404297	185.861221
1191.318359	42.837112
1190.231445	19.459366
1189.144531	-22.906929
1188.056641	46.806149
1186.969727	74.517380
1185.881836	-71.916191
1184.793945	20.091307
1183.706055	-50.507027
1182.617188	54.604698
1181.528320	40.804882
1180.439453	59.699478
1179.350586	71.671280
1178.261719	39.429771
1177.171875	-11.762987
1176.082031	-56.656422
1174.992188	44.653278
1173.901367	124.098022
1172.811523	2.308596
1171.720703	48.429554
1170.629883	-41.282043
1169.538086	-37.629250
1168.447266	-110.745239
1167.355469	-15.539364
1166.263672	6.320249
1165.171875	-41.687881
1164.079102	75.075447
1162.986328	-80.555382
1161.894531	-36.538811
1160.800781	70.883865
1159.708008	114.196152
1158.614258	51.701622
1157.520508	-55.381386
1156.426758	66.083862
1155.333008	18.372774
1154.238281	35.741474
1153.143555	-26.877703
1152.048828	8.679323
1150.954102	90.411118
1149.858398	19.128355
1148.763672	38.551033
1147.667969	-3.686847
1146.571289	-86.447670
1145.475586	-20.399405
1144.378906	53.549747
1143.282227	117.164948
1142.185547	72.444786
1141.088867	-97.064812
1139.991211	55.818108
1138.893555	102.102524
1137.795898	24.206940
1136.698242	47.044971
1135.599609	124.451263
1134.500977	72.618530
1133.402344	57.734344
1132.303711	107.072189
1131.204102	76.156494
1130.104492	31.560513
1129.004883	159.148575
1127.905273	-45.231110
1126.805664	78.806290
1125.705078	94.807938
1124.604492	70.428383
1123.503906	128.901581
1122.402344	36.858078
1121.301758	68.529152
1120.200195	48.489758
1119.098633	74.921982
1117.996094	85.965492
1116.894531	117.369026
1115.791992	4.123661
1114.689453	206.591400
1113.585938	45.081638
1112.483398	69.996330
1111.379883	-4.297344
1110.276367	-15.754578
1109.172852	80.883041
1108.068359	84.571159
1106.963867	140.267334
1105.859375	-20.851097
1104.754883	23.406921
1103.650391	-99.844742
1102.544922	-21.789810
1101.439453	25.637421
1100.333984	-7.287529
1099.227539	0.421373
1098.122070	36.887611
1097.015625	62.533268
1095.909180	59.862816
1094.801758	7.992451
1093.695313	-39.397263
1092.587891	203.851669
1091.480469	150.657043
1090.373047	-106.828201
1089.264648	89.817101
1088.156250	88.919563
1087.047852	51.868027
1085.939453	171.483444
1084.830078	17.050987
1083.721680	121.835243
1082.612305	19.733955
1081.501953	161.491776
1080.392578	88.006424
1079.282227	115.817917
1078.171875	38.844727
1077.061523	15.860475
1075.951172	92.971298
1074.839844	55.770004
1073.728516	64.630867
1072.617188	57.108761
1071.505859	154.085236
1070.393555	121.659714
1069.281250	98.166168
1068.168945	119.555511
1067.056641	-24.847834
1065.943359	109.844864
1064.830078	63.606033
1063.716797	-56.789684
1062.603516	207.248764
1061.489258	96.811501
1060.375977	146.806778
1059.260742	72.163589
1058.146484	-71.490448
1057.032227	39.940140
1055.916992	205.048660
1054.801758	205.805161
1053.686523	161.097595
1052.570313	88.310600
1051.455078	21.087250
1050.338867	112.268738
1049.221680	-7.176106
1048.105469	57.508511
1046.988281	85.700508
1045.871094	44.424679
1044.753906	60.700348
1043.636719	89.192360
1042.518555	57.754021
1041.400391	114.571022
1040.282227	67.328743
1039.164063	64.167114
1038.044922	-13.386486
1036.925781	21.275318
1035.806641	-71.479012
1034.687500	146.697525
1033.567383	96.200714
1032.448242	51.792091
1031.328125	152.932312
1030.207031	148.504288
1029.086914	33.020973
1027.965820	37.373268
1026.844727	150.347870
1025.723633	52.508121
1024.601563	75.534431
1023.479492	122.978867
1022.357422	51.119606
1021.235352	73.319298
1020.113281	-15.930975
1018.990234	152.489319
1017.867188	82.554947
1016.744141	15.346371
1015.620117	101.049828
1014.497070	29.244045
1013.373047	-12.604164
1012.248047	47.759758
1011.124023	128.034103
1009.999023	-73.572060
1008.874023	142.071899
1007.749023	123.680252
1006.624023	41.898880
1005.498047	36.672249
1004.372070	71.330971
1003.246094	42.059536
1002.120117	62.098095
1000.993164	40.417217
999.866211	60.811169
998.739258	-2.072644
997.612305	209.419022
996.484375	160.195923
995.356445	33.317768
994.228516	170.694656
993.100586	189.378769
991.971680	175.828918
990.843750	81.919762
989.714844	153.473175
988.584961	52.758434
987.456055	-68.463120
986.326172	32.667076
985.196289	64.522873
984.065430	127.781837
982.935547	73.171211
981.804688	95.315605
980.673828	77.567200
979.542969	80.180374
978.411133	-10.674980
977.280273	12.210072
976.148438	110.628868
975.015625	57.078289
973.883789	96.756447
972.750977	55.189682
971.618164	-20.105665
970.485352	139.525208
969.351563	12.756037
968.218750	123.056664
967.084961	87.120735
965.950195	22.983681
964.816406	71.757378
963.681641	55.947536
962.546875	105.045204
961.412109	132.003540
960.277344	33.332344
959.141602	23.764812
958.005859	73.545219
956.870117	99.003693
955.733398	44.578785
954.597656	202.392471
953.460938	154.933563
952.323242	63.407005
951.186523	-16.614128
950.048828	-62.640450
948.911133	28.058746
947.773438	87.318481
946.635742	99.234047
945.497070	72.601776
944.358398	67.846039
943.219727	125.014748
942.081055	-21.495520
940.941406	159.443329
939.801758	-88.128311
938.662109	47.051834
937.521484	172.745941
936.381836	48.923504
935.241211	21.490082
934.100586	61.365311
932.958984	10.733964
931.818359	140.770660
930.676758	95.434647
929.535156	71.375793
928.392578	7.264473
927.250977	32.295883
926.108398	181.936508
924.965820	118.660782
923.822266	123.654861
922.678711	88.645767
921.536133	-57.926353
920.391602	10.200521
919.248047	145.427216
918.103516	102.957573
916.959961	54.971924
915.814453	162.490768
914.669922	6.771216
913.524414	-15.824260
912.378906	153.572113
911.233398	39.667976
910.087891	40.807232
908.941406	19.477449
907.794922	50.404102
906.648438	-2.714910
905.501953	28.021927
904.354492	111.486198
903.207031	139.262070
902.059570	112.473686
900.912109	105.208138
