#Wave		#Intensity
1799.013672	47.780479
1798.050781	106.746323
1797.087891	-72.232597
1796.124023	-94.309082
1795.161133	-175.475220
1794.197266	-31.086166
1793.233398	128.693130
1792.268555	69.125168
1791.304688	73.048393
1790.339844	-74.176628
1789.375977	-18.594114
1788.411133	-10.470912
1787.445313	73.926826
1786.480469	22.926208
1785.514648	161.488251
1784.549805	136.862061
1783.583984	246.715256
1782.617188	155.183762
1781.651367	-2.953924
1780.684570	505.625610
1779.718750	51.198940
1778.751953	228.446594
1777.784180	-72.142273
1776.817383	-55.322304
1775.849609	149.397186
1774.882813	217.091675
1773.915039	-192.611725
1772.947266	53.836758
1771.978516	-73.052849
1771.010742	248.058563
1770.041992	-13.768680
1769.073242	214.167389
1768.104492	47.847656
1767.134766	182.691956
1766.166016	221.431824
1765.196289	185.937836
1764.226563	283.851166
1763.256836	198.689529
1762.287109	156.708923
1761.316406	95.348412
1760.345703	51.379929
1759.375000	-4.173149
1758.404297	141.784805
1757.433594	135.769302
1756.461914	55.689980
1755.491211	-91.868683
1754.519531	-10.425171
1753.546875	-55.126183
1752.575195	107.926971
1751.603516	132.700409
1750.630859	-26.417751
1749.658203	-8.748027
1748.685547	87.939590
1747.712891	106.228584
1746.739258	-294.912903
1745.765625	8.499121
1744.791992	170.563629
1743.818359	124.615944
1742.844727	78.696449
1741.870117	130.921738
1740.896484	-18.867277
1739.921875	320.059387
1738.947266	131.155945
1737.971680	-176.304688
1736.997070	-69.519135
1736.021484	230.076797
1735.045898	65.714394
1734.070313	185.211121
1733.094727	103.583664
1732.118164	97.519119
1731.141602	29.383274
1730.165039	-22.693989
1729.188477	-101.602325
1728.211914	-19.221684
1727.234375	-89.140160
1726.257813	-21.444376
1725.280273	49.401436
1724.302734	106.182480
1723.324219	30.619381
1722.346680	378.205109
1721.368164	49.044155
1720.389648	-70.434036
1719.411133	29.226414
1718.432617	12.037980
1717.453125	47.827019
1716.473633	162.145752
1715.495117	47.421124
1714.514648	158.529480
1713.535156	82.156425
1712.555664	-100.014183
1711.575195	-62.778728
1710.594727	121.107918
1709.614258	71.689362
1708.632813	-47.809090
1707.652344	-59.498127
1706.670898	-8.121138
1705.689453	147.724808
1704.708008	91.524719
1703.726563	-175.955200
1702.744141	-62.084980
1701.761719	-87.569427
1700.779297	-58.915779
1699.796875	63.282795
1698.814453	-191.006332
1697.831055	265.667450
1696.848633	-1.806297
1695.865234	160.481003
1694.880859	-80.169121
1693.897461	139.355133
1692.914063	175.272095
1691.929688	-41.574661
1690.945313	-34.779449
1689.960938	209.488312
1688.975586	-169.593536
1687.991211	30.931526
1687.005859	107.039818
1686.020508	249.773285
1685.035156	3.765268
1684.048828	166.826797
1683.063477	160.038574
1682.077148	-44.477753
1681.090820	251.110382
1680.104492	-52.048111
1679.117188	95.282097
1678.130859	-79.043777
1677.143555	253.874115
1676.156250	81.567108
1675.168945	9.391186
1674.180664	158.099640
1673.193359	166.414032
1672.205078	89.987030
1671.216797	-18.593805
1670.228516	-78.376816
1669.239258	117.895676
1668.250000	13.957419
1667.261719	169.879745
1666.272461	75.585907
1665.282227	-176.552200
1664.292969	-3.470877
1663.302734	201.763489
1662.312500	-9.633457
1661.322266	227.225540
1660.332031	193.993347
1659.340820	120.426575
1658.350586	-43.185589
1657.359375	-141.748260
1656.368164	-184.081451
1655.376953	-52.973724
1654.384766	380.625061
1653.392578	263.414063
1652.400391	73.878242
1651.408203	512.465393
1650.416016	13.291307
1649.422852	-0.226203
1648.430664	241.323120
1647.437500	193.313538
1646.444336	286.347870
1645.450195	410.838501
1644.457031	420.935120
1643.462891	312.217926
1642.468750	155.217041
1641.474609	346.601013
1640.480469	199.882187
1639.485352	631.957947
1638.490234	102.795525
1637.495117	471.454132
1636.500000	384.162933
1635.504883	602.117737
1634.508789	800.572021
1633.512695	342.600037
1632.516602	935.243286
1631.520508	867.174316
1630.524414	589.743347
1629.527344	581.485718
1628.530273	594.642883
1627.533203	602.869873
1626.536133	837.427002
1625.538086	738.613770
1624.541016	972.616577
1623.542969	878.393066
1622.544922	747.360046
1621.546875	951.418457
1620.547852	823.713989
1619.548828	790.028381
1618.549805	1116.848633
1617.550781	1073.313843
1616.551758	1076.180786
1615.552734	1197.957886
1614.552734	1153.449829
1613.552734	1202.199219
1612.552734	1056.685059
1611.551758	1343.025391
1610.551758	1427.633301
1609.550781	1163.157593
1608.549805	1173.638428
1607.548828	1323.439697
1606.547852	1387.159668
1605.545898	1495.229370
1604.543945	1403.719482
1603.541992	1350.408081
1602.540039	1436.307739
1601.538086	1336.475586
1600.535156	1615.790527
1599.532227	1504.311035
1598.529297	1478.367920
1597.526367	1546.629883
1596.522461	1519.640259
1595.519531	1504.029419
1594.515625	1687.133667
1593.511719	1488.055420
1592.507813	1172.793701
1591.502930	1609.441162
1590.498047	1729.369873
1589.493164	1420.177856
1588.488281	1206.389526
1587.483398	1459.759521
1586.477539	1246.266113
1585.472656	1260.497925
1584.466797	1433.268555
1583.460938	1240.798584
1582.454102	1379.564697
1581.448242	1388.654419
1580.441406	1179.904053
1579.434570	1318.996338
1578.427734	1198.119385
1577.419922	1261.061768
1576.413086	1352.692261
1575.405273	1216.128174
1574.397461	817.443848
1573.389648	1037.821899
1572.380859	1204.906738
1571.372070	1060.329102
1570.364258	1074.611572
1569.354492	937.800537
1568.345703	1281.239990
1567.336914	925.549133
1566.327148	957.686218
1565.317383	875.439026
1564.307617	853.406067
1563.297852	651.468872
1562.287109	785.023621
1561.276367	948.363525
1560.265625	965.231445
1559.254883	655.190674
1558.244141	814.583740
1557.232422	564.295898
1556.220703	822.156677
1555.208984	708.803345
1554.197266	590.705566
1553.185547	576.555420
1552.172852	676.744812
1551.160156	498.676605
1550.147461	675.066345
1549.134766	621.405090
1548.121094	360.626373
1547.108398	362.878967
1546.094727	492.902618
1545.080078	386.886047
1544.066406	566.490662
1543.052734	390.609406
1542.038086	252.518707
1541.023438	633.320801
1540.008789	388.412964
1538.993164	517.495972
1537.978516	213.945770
1536.962891	616.632324
1535.947266	630.410767
1534.931641	464.703735
1533.915039	112.212898
1532.899414	290.804657
1531.882813	451.641663
1530.866211	102.962997
1529.848633	169.439850
1528.832031	347.935150
1527.814453	289.972382
1526.796875	243.881653
1525.779297	256.944916
1524.761719	215.537766
1523.743164	253.486755
1522.724609	219.797043
1521.706055	69.096191
1520.687500	150.546906
1519.668945	397.755280
1518.649414	76.540985
1517.629883	-76.363327
1516.610352	98.935555
1515.590820	27.362015
1514.570313	6.222790
1513.550781	-38.585873
1512.530273	135.449509
1511.509766	276.535034
1510.488281	-177.379211
1509.467773	-27.949381
1508.446289	56.101292
1507.424805	-8.984795
1506.403320	-56.115334
1505.381836	265.167236
1504.359375	261.784821
1503.336914	142.432159
1502.314453	8.656578
1501.291992	233.864853
1500.268555	-10.098480
1499.246094	87.743141
1498.222656	249.846146
1497.199219	139.130554
1496.174805	-75.759453
1495.151367	395.729156
1494.126953	178.224289
1493.102539	19.580711
1492.078125	235.142578
1491.053711	-2.331915
1490.028320	-20.619257
1489.002930	40.556290
1487.977539	193.945114
1486.952148	374.899139
1485.926758	-25.249264
1484.900391	218.197083
1483.874023	161.506958
1482.847656	-77.010696
1481.821289	118.826080
1480.793945	-19.374615
1479.766602	205.977417
1478.739258	160.706711
1477.711914	159.460007
1476.684570	146.263000
1475.656250	61.513828
1474.627930	268.192261
1473.599609	300.568024
1472.571289	191.559372
1471.542969	85.234856
1470.513672	119.456566
1469.484375	111.978508
1468.455078	158.144638
1467.425781	222.107483
1466.395508	-379.533752
1465.366211	5.927539
1464.335938	-54.464493
1463.304688	-44.880951
1462.274414	146.852234
1461.243164	344.766754
1460.212891	109.428391
1459.180664	225.872528
1458.149414	154.062027
1457.118164	34.032822
1456.085938	-109.969330
1455.053711	174.417786
1454.021484	44.196182
1452.989258	-66.388016
1451.956055	-15.744468
1450.922852	-232.941544
1449.889648	50.440666
1448.856445	162.765457
1447.823242	-129.264084
1446.789063	-23.173756
1445.754883	-119.394424
1444.720703	179.859039
1443.686523	41.783813
1442.651367	-73.074776
1441.617188	-17.346413
1440.582031	32.528519
1439.546875	107.957657
1438.510742	-57.258965
1437.475586	-241.489136
1436.439453	253.297226
1435.403320	170.241180
1434.367188	63.315250
1433.330078	96.529465
1432.292969	-278.766785
1431.256836	-246.258102
1430.218750	18.430885
1429.181641	-74.614723
1428.144531	-170.417725
1427.106445	-18.462984
1426.068359	-72.263771
1425.030273	-57.201195
1423.991211	-51.562267
1422.953125	-30.054884
1421.914063	-145.508423
1420.875000	-213.177475
1419.834961	-70.139275
1418.795898	118.755898
1417.755859	-245.222000
1416.715820	-34.902718
1415.675781	-148.308105
1414.635742	-122.686600
1413.594727	103.139709
1412.553711	-10.780922
1411.512695	144.519867
1410.471680	42.473251
1409.429688	95.509903
1408.388672	326.941223
1407.346680	-126.556442
1406.304688	-60.275955
1405.261719	-161.106216
1404.219727	-22.475801
1403.176758	119.303032
1402.133789	394.868164
1401.090820	384.152618
1400.046875	53.790012
1399.003906	286.121094
1397.959961	145.542664
1396.916016	84.853607
1395.871094	284.748810
1394.827148	-50.780304
1393.782227	306.828735
1392.737305	201.537964
1391.692383	301.622192
1390.646484	95.152222
1389.601563	169.929932
1388.555664	344.695496
1387.509766	349.896240
1386.463867	306.314728
1385.416992	390.778503
1384.370117	131.447266
1383.323242	508.871033
1382.276367	309.726807
1381.229492	550.107605
1380.181641	341.898529
1379.133789	293.256317
1378.085938	549.607849
1377.038086	426.216095
1375.989258	360.906281
1374.941406	454.371277
1373.892578	726.184570
1372.843750	497.011383
1371.793945	686.302795
1370.745117	290.275330
1369.695313	572.816528
1368.645508	635.768616
1367.594727	314.991486
1366.544922	815.737305
1365.494141	404.416504
1364.443359	526.429077
1363.392578	454.703705
1362.341797	748.278564
1361.290039	397.532196
1360.238281	771.025940
1359.186523	408.319336
1358.134766	430.331268
1357.083008	656.254150
1356.030273	787.854126
1354.977539	463.605591
1353.924805	580.130554
1352.871094	631.514038
1351.818359	566.754944
1350.764648	856.376038
1349.710938	777.735535
1348.657227	742.596069
1347.602539	670.305115
1346.547852	693.064148
1345.493164	825.036133
1344.438477	891.958191
1343.383789	701.932739
1342.328125	635.356995
1341.272461	559.511536
1340.216797	867.494751
1339.161133	692.540039
1338.105469	523.745667
1337.048828	693.031067
1335.992188	677.269836
1334.935547	579.476318
1333.877930	831.347717
1332.821289	664.730530
1331.763672	826.971436
1330.706055	689.718567
1329.648438	931.974609
1328.589844	335.542877
1327.531250	661.373779
1326.472656	624.112488
1325.414063	666.126953
1324.355469	678.771362
1323.295898	545.242310
1322.236328	568.258911
1321.176758	416.243652
1320.117188	526.269592
1319.056641	724.846252
1317.997070	351.712372
1316.936523	592.976501
1315.875977	560.894043
1314.814453	688.039551
1313.752930	734.587952
1312.692383	675.848511
1311.630859	672.626343
1310.568359	647.192139
1309.506836	792.557556
1308.444336	683.257263
1307.381836	568.254395
1306.319336	988.623657
1305.255859	727.481934
1304.193359	608.833862
1303.129883	860.664429
1302.066406	607.750488
1301.001953	507.248413
1299.938477	755.226379
1298.874023	824.711243
1297.809570	576.649414
1296.745117	953.406616
1295.679688	656.971802
1294.614258	625.421753
1293.548828	550.592957
1292.483398	908.776978
1291.417969	602.523071
1290.351563	487.660522
1289.286133	564.624329
1288.218750	421.932526
1287.152344	658.493896
1286.085938	534.211914
1285.018555	813.642700
1283.951172	891.635620
1282.883789	703.909851
1281.815430	663.885132
1280.748047	527.994995
1279.679688	509.295349
1278.611328	665.609558
1277.541992	559.379150
1276.473633	700.617065
1275.404297	667.696289
1274.334961	608.586243
1273.265625	618.547241
1272.195313	453.931366
1271.125977	611.303284
1270.055664	754.117065
1268.985352	495.261597
1267.914063	359.784637
1266.843750	473.646729
1265.772461	642.407959
1264.701172	467.574036
1263.629883	405.461914
1262.557617	482.260315
1261.485352	787.068604
1260.413086	571.881287
1259.340820	667.478149
1258.268555	486.933807
1257.195313	653.745972
1256.122070	103.603493
1255.048828	353.254791
1253.975586	517.876099
1252.901367	351.902832
1251.828125	529.389343
1250.753906	499.174805
1249.678711	366.677826
1248.604492	541.348816
1247.529297	461.351532
1246.454102	617.462280
1245.378906	639.308289
1244.303711	372.399841
1243.227539	526.293884
1242.151367	511.733246
1241.075195	381.663635
1239.999023	497.874512
1238.921875	648.350830
1237.845703	577.676758
1236.768555	534.366760
1235.690430	372.790466
1234.613281	449.106079
1233.535156	230.871170
1232.457031	390.767609
1231.378906	590.051697
1230.300781	323.356628
1229.221680	562.640320
1228.143555	417.199341
1227.063477	478.644745
1225.984375	532.551941
1224.905273	338.687347
1223.825195	330.163300
1222.745117	328.036438
1221.665039	331.719299
1220.583984	444.765656
1219.503906	504.567444
1218.422852	500.198547
1217.341797	151.895187
1216.259766	88.129158
1215.178711	183.290344
1214.096680	398.608948
1213.014648	159.862244
1211.932617	298.316315
1210.849609	204.644150
1209.766602	363.847595
1208.683594	105.165413
1207.600586	28.348110
1206.517578	74.437202
1205.433594	140.717072
1204.349609	369.580139
1203.265625	311.245697
1202.181641	-136.129532
1201.096680	206.762329
1200.011719	70.727753
1198.926758	174.370819
1197.841797	-139.571609
1196.755859	65.415268
1195.670898	304.252686
1194.584961	446.303741
1193.499023	143.476593
1192.412109	307.930511
1191.325195	-97.711411
1190.238281	6.307248
1189.151367	160.862076
1188.064453	33.664597
1186.976563	188.127960
1185.889648	255.718658
1184.800781	98.104584
1183.712891	0.244075
1182.625000	-12.617686
1181.536133	-61.649689
1180.447266	78.724518
1179.358398	6.677439
1178.268555	166.442352
1177.178711	24.377083
1176.089844	327.362976
1174.999023	105.569122
1173.909180	144.650055
1172.818359	204.329269
1171.727539	-209.957077
1170.636719	29.586609
1169.545898	222.017685
1168.454102	-58.688667
1167.363281	1.329821
1166.271484	58.432938
1165.178711	2.164240
1164.086914	24.814053
1162.994141	51.999695
1161.901367	-108.478966
1160.808594	141.064377
1159.715820	-136.099991
1158.622070	-13.641766
1157.528320	64.133667
1156.434570	-121.575638
1155.339844	122.318268
1154.246094	29.079350
1153.151367	76.867043
1152.056641	186.802048
1150.961914	136.812943
1149.866211	-40.453972
1148.770508	90.368286
1147.674805	-31.619793
1146.579102	-110.854858
1145.483398	88.119064
1144.386719	21.879635
1143.290039	-84.865967
1142.193359	45.402710
1141.095703	-73.397018
1139.999023	99.381409
1138.901367	-85.014267
1137.803711	-84.378418
1136.705078	-24.038122
1135.607422	-11.051285
1134.508789	-10.082821
1133.410156	-70.063499
1132.310547	19.493820
1131.211914	28.166586
1130.112305	-334.452850
1129.012695	-75.777321
1127.913086	-187.796066
1126.812500	-93.035957
1125.712891	-125.656967
1124.612305	111.979347
1123.510742	-178.590988
1122.410156	-165.447388
1121.308594	-389.051453
1120.207031	-270.498901
1119.105469	56.111778
1118.003906	-48.571846
1116.901367	-217.368347
1115.798828	-60.197289
1114.696289	-297.700104
1113.593750	-1.363944
1112.490234	-139.810410
1111.387695	-247.722534
1110.284180	135.914948
1109.179688	160.880341
1108.076172	57.778282
1106.971680	123.859848
1105.867188	188.114563
1104.762695	-327.667236
1103.657227	-100.074707
1102.552734	-107.953316
1101.447266	69.529160
1100.341797	90.245552
1099.235352	-25.909166
1098.129883	-50.603943
1097.023438	-12.679155
1095.916992	-39.831821
1094.809570	-156.292374
1093.703125	-142.416382
1092.595703	80.767502
1091.488281	-16.798630
1090.379883	-120.070175
1089.272461	-121.321777
1088.164063	-85.453964
1087.055664	-47.461693
1085.947266	30.984587
1084.837891	69.276657
1083.728516	96.726547
1082.619141	108.271248
1081.509766	-69.001862
1080.400391	8.221207
1079.290039	46.452862
1078.179688	33.886543
1077.069336	305.412445
1075.958008	360.648132
1074.847656	100.132401
1073.736328	141.641800
1072.625000	131.839142
1071.512695	39.843544
1070.401367	28.130276
1069.289063	337.750427
1068.176758	42.568466
1067.063477	123.750000
1065.951172	187.353241
1064.837891	176.133514
1063.724609	232.153030
1062.611328	336.290375
1061.497070	310.644287
1060.382813	78.984314
1059.268555	310.032867
1058.154297	243.643143
1057.040039	117.158669
1055.924805	138.029175
1054.809570	208.638153
1053.694336	280.208069
1052.578125	263.116028
1051.461914	259.337769
1050.345703	406.056641
1049.229492	223.397461
1048.113281	436.404968
1046.996094	225.020233
1045.878906	125.489136
1044.761719	85.157204
1043.644531	205.209854
1042.526367	123.800606
1041.408203	138.445374
1040.290039	331.231934
1039.171875	153.333984
1038.052734	336.277740
1036.933594	241.415466
1035.814453	250.323303
1034.695313	87.132034
1033.575195	300.658447
1032.455078	368.304138
1031.334961	6.719521
1030.214844	66.316650
1029.094727	206.062317
1027.973633	121.464149
1026.852539	101.434204
1025.731445	364.970551
1024.609375	145.135162
1023.487305	196.578781
1022.365234	223.908859
1021.243164	60.078583
1020.121094	207.416107
1018.998047	158.061050
1017.875000	54.047558
1016.751953	161.383530
1015.627930	12.083230
1014.503906	155.263214
1013.380859	571.825684
1012.255859	257.009888
1011.131836	218.992813
1010.006836	265.880310
1008.881836	343.725098
1007.756836	234.757782
1006.631836	520.564514
1005.505859	163.144882
1004.379883	243.177155
1003.253906	255.882202
1002.127930	235.709488
1001.000977	284.753876
999.874023	117.885506
998.747070	135.055801
997.620117	181.468109
996.492188	115.201279
995.364258	202.338852
994.236328	25.009979
993.108398	327.900482
991.979492	308.748962
990.851563	16.485178
989.721680	258.993958
988.592773	48.514145
987.463867	223.684631
986.333984	305.147766
985.204102	-83.720825
984.073242	8.015936
982.943359	52.029736
981.812500	-10.799885
980.681641	111.411018
979.550781	96.404984
978.418945	205.018951
977.288086	172.058563
976.156250	-22.810585
975.023438	217.858810
973.891602	17.277405
972.758789	325.451904
971.625977	124.120743
970.493164	21.483536
969.359375	65.452560
968.226563	163.860672
967.092773	236.188156
965.958008	437.874573
964.824219	162.155823
963.689453	51.700985
962.554688	-101.250603
961.419922	284.848389
960.285156	-14.239838
959.149414	-161.957458
958.013672	112.361107
956.877930	26.597202
955.741211	-146.170151
954.605469	-169.394516
953.468750	-64.621521
952.331055	238.986923
951.194336	275.776703
950.056641	125.592224
948.918945	-44.978218
947.781250	200.198715
946.643555	-139.155746
945.504883	-105.689972
944.366211	261.932800
943.227539	10.224853
942.088867	123.928894
940.949219	-178.355759
939.809570	140.217834
938.669922	-14.129051
937.529297	-42.443909
936.389648	9.160868
935.249023	-5.134923
934.108398	194.676300
932.966797	126.427551
931.826172	111.216240
930.684570	-43.725922
929.542969	217.310272
928.400391	175.466080
927.258789	112.187286
926.116211	240.835754
924.973633	306.416016
923.830078	214.365814
922.687500	32.039917
921.543945	174.350250
