#Wave		#Intensity
1799.006836	43.372845
1798.043945	-33.900711
1797.081055	60.782711
1796.117188	39.291710
1795.154297	6.163858
1794.190430	39.196846
1793.226563	29.434813
1792.262695	-3.000300
1791.297852	-36.397900
1790.333984	19.024775
1789.369141	43.322304
1788.404297	54.019405
1787.439453	-25.945353
1786.473633	48.546764
1785.508789	7.803139
1784.542969	49.271030
1783.577148	39.933960
1782.611328	28.022991
1781.644531	10.935798
1780.678711	18.780153
1779.711914	45.366798
1778.745117	-49.584728
1777.778320	7.724557
1776.810547	76.959030
1775.843750	-29.867910
1774.875977	3.835793
1773.908203	33.336872
1772.940430	23.446417
1771.971680	-32.606266
1771.003906	-22.132010
1770.035156	132.557266
1769.066406	21.053900
1768.097656	-2.025306
1767.128906	17.477200
1766.159180	-53.953548
1765.189453	60.638546
1764.219727	30.814253
1763.250000	-11.879322
1762.280273	-19.436092
1761.309570	3.276294
1760.338867	12.460959
1759.369141	68.668999
1758.397461	66.567696
1757.426758	-20.471397
1756.455078	-9.028429
1755.484375	46.824905
1754.512695	24.169163
1753.541016	-0.723140
1752.568359	58.938705
1751.596680	112.490639
1750.624023	23.965000
1749.651367	-43.956062
1748.678711	-6.156047
1747.706055	-10.761596
1746.732422	26.690338
1745.758789	43.906044
1744.785156	-6.928864
1743.811523	126.470604
1742.837891	136.933395
1741.863281	44.085819
1740.889648	35.647770
1739.915039	26.881502
1738.940430	-19.065710
1737.964844	60.324623
1736.990234	-42.325111
1736.014648	55.310921
1735.039063	-0.852814
1734.063477	106.994820
1733.087891	31.320011
1732.111328	7.209333
1731.135742	74.673965
1730.159180	71.055290
1729.181641	9.195032
1728.205078	70.539856
1727.228516	-17.816542
1726.250977	6.410500
1725.273438	107.681374
1724.295898	-20.904640
1723.317383	41.976822
1722.339844	84.404404
1721.361328	70.262802
1720.382813	5.349789
1719.404297	65.322372
1718.425781	2.362246
1717.446289	-3.128000
1716.467773	-23.913492
1715.488281	154.714630
1714.508789	-29.426535
1713.528320	103.199829
1712.548828	32.672260
1711.568359	45.691303
1710.587891	23.330246
1709.607422	68.863083
1708.625977	-14.671948
1707.645508	92.661110
1706.664063	74.139366
1705.682617	-5.506712
1704.701172	117.362839
1703.719727	73.401924
1702.737305	73.047668
1701.754883	75.245583
1700.773438	80.963478
1699.790039	70.117516
1698.807617	-17.335232
1697.824219	88.849388
1696.841797	38.948505
1695.858398	37.045570
1694.875000	90.752281
1693.890625	45.955128
1692.907227	12.949574
1691.922852	126.649879
1690.938477	24.116545
1689.954102	72.398872
1688.968750	70.832787
1687.984375	90.547722
1686.999023	35.702957
1686.013672	62.396046
1685.028320	74.183876
1684.041992	71.377541
1683.056641	23.905039
1682.070313	13.839152
1681.083984	6.637960
1680.097656	-2.768601
1679.110352	-31.495981
1678.124023	103.832649
1677.136719	56.436844
1676.149414	82.184021
1675.162109	32.616196
1674.173828	6.792452
1673.186523	8.840315
1672.198242	14.045536
1671.209961	111.904633
1670.221680	23.533712
1669.232422	22.113287
1668.243164	16.595997
1667.254883	103.677933
1666.265625	83.954659
1665.275391	66.447227
1664.286133	103.913383
1663.295898	39.395061
1662.305664	-8.988327
1661.315430	-6.534966
1660.325195	12.020203
1659.334961	107.545868
1658.343750	131.127289
1657.352539	39.940811
1656.361328	74.900887
1655.370117	-24.090578
1654.377930	-23.151596
1653.385742	25.688385
1652.393555	51.213478
1651.401367	0.215355
1650.409180	-0.999665
1649.416992	91.609848
1648.423828	-8.435320
1647.430664	69.678413
1646.437500	92.404961
1645.443359	-9.122401
1644.450195	33.768181
1643.456055	74.127045
1642.461914	67.961159
1641.467773	96.385323
1640.473633	0.694144
1639.478516	74.693039
1638.483398	45.966755
1637.488281	68.143303
1636.493164	67.721619
1635.498047	1.709334
1634.501953	42.749382
1633.505859	24.171164
1632.509766	58.323002
1631.513672	51.390144
1630.517578	95.907555
1629.520508	27.539890
1628.523438	55.452988
1627.526367	143.861023
1626.529297	108.481575
1625.531250	-4.884357
1624.534180	43.134480
1623.536133	60.763554
1622.538086	100.008408
1621.540039	64.757278
1620.541016	54.563599
1619.541992	14.982026
1618.542969	145.932800
1617.543945	-7.460143
1616.544922	-2.851013
1615.545898	19.910265
1614.545898	21.727264
1613.545898	101.382996
1612.545898	60.106644
1611.544922	78.210808
1610.544922	5.142165
1609.543945	44.216293
1608.542969	94.536514
1607.541992	25.621056
1606.541016	64.423126
1605.539063	119.444916
1604.537109	-4.594042
1603.535156	75.417412
1602.533203	50.957714
1601.531250	32.767414
1600.528320	102.183701
1599.525391	79.350891
1598.522461	-20.718630
1597.519531	-0.478906
1596.515625	71.776390
1595.512695	78.649704
1594.508789	93.626785
1593.504883	65.358360
1592.500000	91.884850
1591.496094	65.857903
1590.491211	6.570016
1589.486328	-39.293774
1588.481445	1.329931
1587.476563	82.068146
1586.470703	49.960274
1585.465820	105.538780
1584.459961	55.473648
1583.454102	50.808578
1582.447266	23.488867
1581.441406	99.619476
1580.434570	44.106724
1579.427734	6.647141
1578.420898	44.638603
1577.413086	77.666458
1576.406250	50.545422
1575.398438	59.116943
1574.390625	-4.840815
1573.381836	85.006035
1572.374023	12.759529
1571.365234	46.848309
1570.356445	64.223236
1569.347656	-32.057541
1568.338867	34.008217
1567.330078	-38.324810
1566.320313	-16.811718
1565.310547	13.389406
1564.300781	2.763956
1563.290039	46.612598
1562.280273	3.260293
1561.269531	85.192162
1560.258789	16.239443
1559.248047	47.193920
1558.237305	46.644127
1557.225586	63.728466
1556.213867	-5.046067
1555.202148	21.373417
1554.190430	52.447632
1553.177734	-9.093435
1552.166016	112.486160
1551.153320	59.666069
1550.140625	33.746365
1549.127930	60.624172
1548.114258	-7.792362
1547.100586	-8.613168
1546.086914	-42.080296
1545.073242	102.051514
1544.059570	-34.288643
1543.044922	28.189518
1542.031250	80.214462
1541.016602	-40.236111
1540.001953	16.460373
1538.986328	12.815556
1537.971680	44.925003
1536.956055	1.955936
1535.940430	131.036255
1534.923828	7.840127
1533.908203	26.525518
1532.891602	66.139366
1531.875977	88.875755
1530.858398	-20.858751
1529.841797	16.392929
1528.825195	26.321159
1527.807617	-37.451633
1526.790039	87.105148
1525.772461	-0.222483
1524.753906	41.451550
1523.736328	37.731190
1522.717773	47.849102
1521.699219	89.602165
1520.680664	23.708754
1519.662109	120.423592
1518.642578	15.063085
1517.623047	125.909760
1516.603516	75.838226
1515.583984	87.726646
1514.563477	81.869461
1513.543945	-29.919182
1512.523438	52.222260
1511.502930	24.755146
1510.481445	10.492523
1509.460938	116.261612
1508.439453	-13.602075
1507.417969	4.089331
1506.396484	21.202124
1505.374023	-50.653084
1504.352539	56.740513
1503.330078	-26.321800
1502.307617	4.688553
1501.285156	63.227833
1500.261719	9.655762
1499.239258	55.118023
1498.215820	8.675339
1497.192383	77.396225
1496.167969	76.523766
1495.144531	30.534079
1494.120117	40.434048
1493.095703	-43.894035
1492.071289	-6.144198
1491.046875	-33.930763
1490.021484	-52.831448
1488.996094	43.843475
1487.970703	85.055740
1486.945313	63.526207
1485.918945	-10.357569
1484.893555	3.556019
1483.867188	120.420357
1482.840820	11.686602
1481.813477	19.914118
1480.787109	7.495466
1479.759766	4.852334
1478.732422	64.917267
1477.705078	124.088371
1476.677734	60.128979
1475.649414	44.568066
1474.621094	10.819671
1473.592773	23.622843
1472.564453	9.423525
1471.536133	31.116514
1470.506836	44.029461
1469.477539	48.174805
1468.448242	93.344559
1467.418945	49.609413
1466.388672	84.522041
1465.358398	73.348488
1464.328125	35.227310
1463.297852	58.424873
1462.267578	89.236580
1461.236328	45.195805
1460.205078	92.746681
1459.173828	-1.490049
1458.142578	51.289063
1457.111328	51.083652
1456.079102	40.315845
1455.046875	34.138042
1454.014648	142.732971
1452.981445	90.615181
1451.949219	87.588470
1450.916016	67.355804
1449.882813	9.972925
1448.849609	30.071999
1447.816406	68.648613
1446.782227	-10.035485
1445.748047	72.435608
1444.713867	47.955891
1443.679688	60.385326
1442.644531	148.655640
1441.609375	46.393326
1440.574219	81.281609
1439.539063	65.489861
1438.503906	37.979588
1437.467773	39.181137
1436.432617	18.713213
1435.396484	50.467110
1434.359375	11.385542
1433.323242	76.377945
1432.286133	9.062572
1431.249023	41.564735
1430.211914	29.507425
1429.174805	70.514236
1428.136719	39.865143
1427.099609	-54.856651
1426.061523	33.832245
1425.022461	-48.433331
1423.984375	75.812965
1422.945313	9.003537
1421.906250	53.558800
1420.867188	71.073151
1419.828125	166.798355
1418.789063	75.248474
1417.749023	2.107844
1416.708984	75.075706
1415.668945	16.171633
1414.627930	-20.444468
1413.587891	81.442123
1412.546875	35.006477
1411.505859	96.396706
1410.464844	-24.364948
1409.422852	84.801552
1408.380859	83.868782
1407.339844	127.974037
1406.296875	68.039192
1405.254883	36.058537
1404.212891	-11.752558
1403.169922	126.297768
1402.126953	150.177170
1401.083008	27.598957
1400.040039	84.817955
1398.996094	23.174013
1397.952148	4.108732
1396.908203	65.609283
1395.864258	116.053955
1394.820313	1.664417
1393.775391	36.924511
1392.730469	99.128151
1391.685547	100.050705
1390.639648	101.009895
1389.593750	30.277390
1388.548828	42.692459
1387.502930	78.143837
1386.456055	48.500633
1385.410156	72.968124
1384.363281	119.855469
1383.316406	58.701145
1382.269531	97.295914
1381.221680	18.642393
1380.174805	10.173598
1379.126953	60.205898
1378.079102	-17.973635
1377.031250	54.782906
1375.982422	83.725525
1374.933594	125.213081
1373.884766	102.064720
1372.835938	27.427496
1371.787109	1.110297
1370.737305	16.826698
1369.687500	68.301308
1368.637695	51.629646
1367.587891	90.653687
1366.538086	94.888618
1365.487305	83.687225
1364.436523	95.429436
1363.385742	122.667061
1362.333984	-15.069401
1361.283203	95.181671
1360.231445	84.770828
1359.179688	10.225994
1358.127930	45.952843
1357.075195	89.717041
1356.022461	-14.962390
1354.969727	96.554344
1353.916992	37.696472
1352.864258	83.352455
1351.810547	53.664700
1350.756836	20.762396
1349.703125	-4.676947
1348.649414	93.864876
1347.595703	94.281067
1346.541016	104.509010
1345.486328	46.615570
1344.431641	81.803520
1343.375977	47.995556
1342.321289	1.505141
1341.265625	37.667820
1340.209961	31.520254
1339.154297	93.180351
1338.097656	66.375427
1337.041016	49.081116
1335.985352	53.124355
1334.927734	71.386848
1333.871094	41.191105
1332.813477	81.681412
1331.756836	-16.409418
1330.698242	107.160446
1329.640625	67.654152
1328.583008	33.510979
1327.524414	18.012735
1326.465820	97.610779
1325.407227	61.505791
1324.347656	39.608543
1323.289063	61.416634
1322.229492	90.912819
1321.169922	33.427589
1320.110352	19.043312
1319.049805	10.292740
1317.989258	-23.477623
1316.928711	83.939705
1315.868164	98.540054
1314.807617	113.456688
1313.746094	48.882137
1312.684570	79.754692
1311.623047	101.810890
1310.561523	89.745491
1309.499023	-27.628122
1308.436523	95.711952
1307.374023	97.261894
1306.311523	104.129654
1305.249023	51.632954
1304.185547	73.840645
1303.122070	60.505573
1302.058594	86.865967
1300.995117	37.450329
1299.930664	88.814796
1298.866211	29.188671
1297.801758	130.781494
1296.737305	104.677887
1295.672852	-5.318474
1294.607422	12.962895
1293.541992	23.338951
1292.476563	63.352951
1291.410156	96.333420
1290.344727	79.195137
1289.278320	63.842300
1288.211914	158.986404
1287.145508	47.865524
1286.078125	94.097954
1285.010742	98.747894
1283.943359	97.852371
1282.875977	32.284836
1281.808594	33.782993
1280.740234	37.053242
1279.671875	32.734867
1278.603516	29.020655
1277.535156	59.538933
1276.465820	76.319885
1275.397461	20.037260
1274.328125	17.273378
1273.257813	100.133057
1272.188477	49.771137
1271.118164	-24.503887
1270.047852	94.859589
1268.977539	45.742455
1267.907227	36.939148
1266.835938	59.960472
1265.764648	19.384199
1264.693359	-30.787334
1263.622070	140.132050
1262.550781	-64.841644
1261.478516	-4.444030
1260.406250	12.514787
1259.333984	62.405666
1258.260742	72.374496
1257.188477	159.246490
1256.115234	76.026672
1255.041992	113.387184
1253.967773	-37.009823
1252.894531	74.299568
1251.820313	52.018101
1250.746094	168.808456
1249.671875	96.509262
1248.596680	78.624031
1247.522461	49.708134
1246.447266	16.451099
1245.372070	20.122364
1244.295898	15.662485
1243.220703	48.975513
1242.144531	-38.245667
1241.068359	10.465626
1239.991211	151.477325
1238.915039	44.279488
1237.837891	14.608511
1236.760742	-37.384521
1235.683594	-33.950100
1234.605469	85.486046
1233.528320	43.090546
1232.450195	78.692123
1231.372070	81.242386
1230.292969	35.693176
1229.214844	86.055809
1228.135742	48.058338
1227.056641	23.688471
1225.977539	5.698645
1224.897461	62.396912
1223.817383	70.162827
1222.737305	10.509675
1221.657227	77.584305
1220.577148	2.334569
1219.496094	26.295469
1218.415039	22.780127
1217.333984	60.885826
1216.252930	81.922981
1215.170898	-8.285098
1214.088867	85.831558
1213.006836	71.029404
1211.924805	20.714428
1210.841797	-9.377460
1209.759766	16.241728
1208.676758	78.780006
1207.593750	25.887810
1206.509766	65.022568
1205.425781	132.106339
1204.342773	71.721176
1203.257813	23.747004
1202.173828	112.102600
1201.088867	-23.468088
1200.004883	-30.796551
1198.919922	-25.747126
1197.833984	73.740334
1196.749023	-6.757813
1195.663086	-22.469337
1194.577148	58.220112
1193.491211	36.438084
1192.404297	57.226643
1191.318359	30.255514
1190.231445	-25.470993
1189.144531	-28.866322
1188.056641	-21.926029
1186.969727	9.136367
1185.881836	-26.767424
1184.793945	-35.095837
1183.706055	55.927837
1182.617188	-32.262081
1181.528320	34.006001
1180.439453	-123.912582
1179.350586	-0.871110
1178.261719	12.516390
1177.171875	-46.683014
1176.082031	17.142879
1174.992188	-80.770943
1173.901367	25.421946
1172.811523	-7.149100
1171.720703	6.402640
1170.629883	25.373041
1169.538086	12.524991
1168.447266	-46.436123
1167.355469	66.372154
1166.263672	52.032269
1165.171875	18.792126
1164.079102	12.150131
1162.986328	22.365051
1161.894531	-26.355804
1160.800781	-37.625736
1159.708008	-11.465233
1158.614258	4.085517
1157.520508	50.465782
1156.426758	138.512360
1155.333008	62.552269
1154.238281	114.529182
1153.143555	84.520027
1152.048828	53.071560
1150.954102	29.029974
1149.858398	24.658066
1148.763672	11.705510
1147.667969	80.012085
1146.571289	10.252522
1145.475586	-13.605588
1144.378906	41.182426
1143.282227	68.848480
1142.185547	40.062508
1141.088867	-12.666939
1139.991211	-21.548693
1138.893555	104.502159
1137.795898	-8.932335
1136.698242	33.897232
1135.599609	102.001160
1134.500977	102.906364
1133.402344	77.327957
1132.303711	24.997524
1131.204102	29.516201
1130.104492	130.075073
1129.004883	69.708977
1127.905273	27.234446
1126.805664	64.282494
1125.705078	57.258324
1124.604492	77.744286
1123.503906	52.480766
1122.402344	33.718460
1121.301758	16.065418
1120.200195	14.269196
1119.098633	-20.466496
1117.996094	125.705360
1116.894531	76.426636
1115.791992	42.152889
1114.689453	69.639847
1113.585938	74.689476
1112.483398	81.400574
1111.379883	135.934143
1110.276367	29.844868
1109.172852	97.593369
1108.068359	14.119029
1106.963867	-19.553507
1105.859375	-2.323238
1104.754883	-5.226116
1103.650391	-14.673950
1102.544922	68.582664
1101.439453	8.998843
1100.333984	-0.574892
1099.227539	-0.865188
1098.122070	-96.970718
1097.015625	52.660381
1095.909180	71.432251
1094.801758	74.338081
1093.695313	11.710893
1092.587891	21.876423
1091.480469	109.870323
1090.373047	102.147385
1089.264648	-6.875687
1088.156250	57.805630
1087.047852	-5.019033
1085.939453	-8.670879
1084.830078	63.717335
1083.721680	66.156578
1082.612305	27.979864
1081.501953	14.551897
1080.392578	-23.975597
1079.282227	172.244064
1078.171875	51.695496
1077.061523	116.306664
1075.951172	135.264923
1074.839844	37.149929
1073.728516	67.261803
1072.617188	136.673141
1071.505859	54.209869
1070.393555	-30.521404
1069.281250	81.138237
1068.168945	61.226742
1067.056641	87.333954
1065.943359	116.462563
1064.830078	33.228447
1063.716797	94.530167
1062.603516	45.746876
1061.489258	51.076283
1060.375977	55.512596
1059.260742	87.649292
1058.146484	141.873398
1057.032227	39.594963
1055.916992	53.053501
1054.801758	126.977722
1053.686523	87.632668
1052.570313	78.494759
1051.455078	126.997162
1050.338867	83.585693
1049.221680	98.074707
1048.105469	48.697586
1046.988281	85.178680
1045.871094	121.307884
1044.753906	51.644081
1043.636719	99.394218
1042.518555	35.515388
1041.400391	83.966515
1040.282227	103.835052
1039.164063	73.627258
1038.044922	14.596946
1036.925781	73.942474
1035.806641	101.095306
1034.687500	-4.699512
1033.567383	48.289539
1032.448242	48.743011
1031.328125	53.594398
1030.207031	89.337395
1029.086914	85.413002
1027.965820	57.446674
1026.844727	113.053505
1025.723633	51.529724
1024.601563	105.870987
1023.479492	108.593903
1022.357422	56.109825
1021.235352	31.987812
1020.113281	71.563644
1018.990234	52.327614
1017.867188	34.149994
1016.744141	134.155777
1015.620117	119.452629
1014.497070	93.296516
1013.373047	62.355789
1012.248047	55.541183
1011.124023	63.402035
1009.999023	43.681480
1008.874023	120.578598
1007.749023	99.892456
1006.624023	62.212296
1005.498047	47.241676
1004.372070	73.291588
1003.246094	-31.993677
1002.120117	119.337433
1000.993164	141.824951
999.866211	57.465755
998.739258	101.175758
997.612305	81.042870
996.484375	84.402946
995.356445	133.970245
994.228516	143.557663
993.100586	31.481886
991.971680	155.590393
990.843750	58.376873
989.714844	18.705030
988.584961	45.669842
987.456055	77.544121
986.326172	80.837990
985.196289	15.474609
984.065430	80.022644
982.935547	41.091064
981.804688	79.766586
980.673828	93.487846
979.542969	123.159317
978.411133	69.878128
977.280273	-60.488289
976.148438	34.419701
975.015625	117.617393
973.883789	48.378323
972.750977	131.952560
971.618164	3.835340
970.485352	86.418953
969.351563	102.987114
968.218750	45.602741
967.084961	79.123138
965.950195	120.543617
964.816406	36.252125
963.681641	62.375313
962.546875	7.727243
961.412109	19.939602
960.277344	46.667412
959.141602	90.094048
958.005859	-1.397106
956.870117	9.970186
955.733398	-7.901248
954.597656	104.517578
953.460938	48.278870
952.323242	54.930550
951.186523	2.433343
950.048828	37.251232
948.911133	208.232666
947.773438	28.360794
946.635742	-31.514015
945.497070	90.562836
944.358398	11.063431
943.219727	29.214720
942.081055	93.652344
940.941406	90.233658
939.801758	17.641047
938.662109	-17.978601
937.521484	8.286223
936.381836	34.753052
935.241211	107.707710
934.100586	141.113159
932.958984	16.944538
931.818359	58.155571
930.676758	14.675697
929.535156	-24.476233
928.392578	33.450954
927.250977	58.463440
926.108398	54.937256
924.965820	49.427612
923.822266	54.228806
922.678711	-11.841141
921.536133	45.860249
920.391602	53.169388
919.248047	77.626221
918.103516	73.040710
916.959961	63.208870
915.814453	31.995043
914.669922	49.865242
913.524414	13.614724
912.378906	3.773941
911.233398	98.065758
910.087891	77.707306
908.941406	54.004177
907.794922	89.394760
906.648438	-3.393321
905.501953	36.758942
904.354492	-2.462460
903.207031	88.453232
902.059570	104.103653
900.912109	67.677521
899.763672	54.049580
898.615234	117.916115
897.466797	6.740741
896.318359	16.590839
895.168945	60.622208
894.019531	22.723124
892.870117	97.313507
891.720703	41.617851
890.570313	30.699585
889.419922	65.900093
888.269531	73.584007
